Zeit t / s,Spannung U_B1 / V,Relais R_1,Spannungsquelle S_1,Spannung U_A1 / V
0,-0.005,0,1,-0.00075
0.199,-0.005,0,1,-0.00075
0.4,-0.005,0,1,-0.00075
0.6,-0.005,0,1,-0.00075
0.8,-0.005,0,1,-0.00075
1.001,-0.005,0,1,-0.00075
1.2,-0.005,0,1,-0.00075
1.399,-0.01,0,1,-0.00075
1.6,-0.005,0,1,-0.00075
1.8,-0.005,0,1,-0.00075
2,-0.005,0,1,-0.00075
2.2,-0.005,0,1,-0.00075
2.399,-0.005,0,1,-0.00075
2.599,-0.005,0,1,-0.00075
2.8,-0.005,0,1,-0.00075
3,-0.005,0,1,-0.00075
3.2,-0.005,0,1,-0.00075
3.4,-0.005,0,1,-0.00075
3.599,-0.005,0,1,-0.00075
3.8,-0.005,0,1,-0.00075
3.999,-0.005,0,1,-0.00075
4.2,-0.005,0,1,-0.00075
4.399,-0.005,0,1,-0.0006
4.599,-0.005,0,1,-0.00075
4.8,-0.005,0,1,-0.00075
4.999,-0.005,0,1,-0.0009
5.2,-0.01,0,1,-0.0009
5.401,-0.005,0,1,-0.00105
5.6,-0.005,0,1,-0.00105
5.8,-0.005,0,1,-0.00105
5.999,-0.01,0,1,-0.0012
6.2,-0.005,0,1,-0.0012
6.4,-0.005,0,1,-0.00135
6.6,-0.01,0,1,-0.00135
6.801,-0.005,0,1,-0.00135
7,-0.005,0,1,-0.0015
7.201,-0.005,0,1,-0.0015
7.399,-0.005,0,1,-0.0015
7.6,-0.005,0,1,-0.0015
7.801,-0.005,0,1,-0.0015
8,-0.01,0,1,-0.0015
8.199,-0.005,0,1,-0.0015
8.4,-0.005,0,1,-0.0015
8.599,-0.01,0,1,-0.0015
8.8,-0.01,0,1,-0.0015
9,-0.005,0,1,-0.0015
9.2,-0.005,0,1,-0.0015
9.401,-0.005,0,1,-0.00165
9.6,-0.01,0,1,-0.00165
9.799,-0.01,0,1,-0.00165
9.999,-0.01,0,1,-0.00165
10.2,-0.005,0,1,-0.00165
10.399,-0.005,0,1,-0.00165
10.6,-0.01,0,1,-0.00165
10.801,-0.005,0,1,-0.00165
10.999,-0.005,0,1,-0.0018
11.2,-0.01,0,1,-0.0018
11.4,-0.01,0,1,-0.0018
11.6,-0.005,0,1,-0.0018
11.799,-0.005,0,1,-0.00195
12,-0.005,0,1,-0.00195
12.2,-0.005,0,1,-0.00195
12.4,-0.01,0,1,-0.00195
12.601,-0.005,0,1,-0.00195
12.8,-0.005,0,1,-0.00195
13,-0.01,0,1,-0.00195
13.201,-0.01,0,1,-0.00195
13.4,-0.005,0,1,-0.00195
13.6,-0.005,0,1,-0.00195
13.8,-0.005,0,1,-0.00195
14,-0.005,0,1,-0.00195
14.2,-0.01,0,1,-0.00195
14.401,-0.005,0,1,-0.00195
14.599,-0.01,0,1,-0.00195
14.799,-0.005,0,1,-0.00195
14.999,-0.005,0,1,-0.00195
15.2,-0.01,0,1,-0.00195
15.401,-0.01,0,1,-0.00195
15.6,-0.005,0,1,-0.00195
15.8,-0.01,0,1,-0.00195
16,-0.005,0,1,-0.0021
16.2,-0.005,0,1,-0.0021
16.4,-0.005,0,1,-0.0021
16.6,-0.01,0,1,-0.0021
16.8,-0.01,0,1,-0.0021
17,-0.01,0,1,-0.0021
17.2,-0.005,0,1,-0.0021
17.399,-0.005,0,1,-0.0021
17.6,-0.005,0,1,-0.00225
17.801,-0.005,0,1,-0.00225
18,-0.01,0,1,-0.00225
18.2,-0.005,0,1,-0.00225
18.4,-0.01,0,1,-0.00225
18.6,-0.01,0,1,-0.00225
18.8,-0.005,0,1,-0.00225
18.999,-0.01,0,1,-0.0024
19.2,-0.01,0,1,-0.0024
19.4,-0.005,0,1,-0.0024
19.6,-0.005,0,1,-0.0024
19.8,-0.01,0,1,-0.0024
20,-0.005,0,1,-0.0024
20.2,-0.01,0,1,-0.0024
20.4,-0.005,0,1,-0.0024
20.599,-0.005,0,1,-0.0024
20.799,-0.01,0,1,-0.0024
21,-0.005,0,1,-0.0024
21.2,-0.005,0,1,-0.00255
21.399,-0.005,0,1,-0.00255
21.599,-0.01,0,1,-0.00255
21.799,-0.005,0,1,-0.00255
22,-0.005,0,1,-0.00255
22.2,-0.005,0,1,-0.00255
22.4,-0.01,0,1,-0.00255
22.6,-0.005,0,1,-0.0027
22.799,-0.005,0,1,-0.0027
23,-0.01,0,1,-0.0027
23.2,-0.005,0,1,-0.0027
23.4,-0.005,0,1,-0.0027
23.6,-0.005,0,1,-0.0027
23.8,-0.005,0,1,-0.0027
23.999,-0.005,0,1,-0.0027
24.2,-0.005,0,1,-0.0027
24.4,-0.005,0,1,-0.0027
24.6,-0.005,0,1,-0.00285
24.799,-0.005,0,1,-0.00285
25,-0.005,0,1,-0.00285
25.201,-0.01,0,1,-0.00285
25.401,-0.005,0,1,-0.00285
25.6,-0.005,0,1,-0.00285
25.8,-0.005,0,1,-0.00285
25.999,-0.005,0,1,-0.00285
26.199,-0.005,0,1,-0.00285
26.4,-0.005,0,1,-0.00285
26.601,-0.005,0,1,-0.00285
26.8,-0.005,0,1,-0.00285
26.999,-0.005,0,1,-0.003
27.199,-0.01,0,1,-0.003
27.403,-0.005,0,1,-0.003
27.6,-0.005,0,1,-0.003
27.8,-0.005,0,1,-0.003
28,-0.005,0,1,-0.003
28.199,-0.005,0,1,-0.003
28.4,-0.005,0,1,-0.003
28.599,-0.005,0,1,-0.003
28.8,-0.005,0,1,-0.003
28.999,-0.005,0,1,-0.003
29.199,-0.005,0,1,-0.003
29.399,-0.005,0,1,-0.00315
29.6,-0.005,0,1,-0.00315
29.8,-0.005,0,1,-0.00315
30,-0.005,0,1,-0.00315
30.199,-0.005,0,1,-0.00315
30.4,-0.005,0,1,-0.0033
30.601,-0.005,0,1,-0.0033
30.8,-0.005,0,1,-0.00315
31,-0.005,0,1,-0.00315
31.199,-0.005,0,1,-0.00315
31.399,-0.005,0,1,-0.0033
31.6,-0.005,0,1,-0.0033
31.8,-0.005,0,1,-0.0033
32,-0.005,0,1,-0.0033
32.199,-0.005,0,1,-0.0033
32.399,-0.005,0,1,-0.0033
32.6,-0.005,0,1,-0.0033
32.8,-0.005,0,1,-0.0033
33,-0.005,0,1,-0.0033
33.2,-0.005,0,1,-0.0033
33.399,-0.005,0,1,-0.0033
33.601,-0.005,0,1,-0.0033
33.8,-0.005,0,1,-0.00345
34,-0.005,0,1,-0.00345
34.199,-0.005,0,1,-0.00345
34.4,-0.005,0,1,-0.00345
34.6,-0.005,0,1,-0.00345
34.8,-0.005,0,1,-0.00345
35,-0.005,0,1,-0.0036
35.2,-0.005,0,1,-0.0036
35.399,-0.005,0,1,-0.0036
35.6,-0.005,0,1,-0.0036
35.799,-0.005,0,1,-0.0036
36.001,-0.005,0,1,-0.0036
36.2,-0.005,0,1,-0.0036
36.4,-0.005,0,1,-0.0036
36.6,-0.005,0,1,-0.0036
36.799,-0.005,0,1,-0.0036
37,-0.005,0,1,-0.00375
37.2,-0.005,0,1,-0.00375
37.4,-0.005,0,1,-0.00375
37.599,-0.005,0,1,-0.00375
37.8,-0.005,0,1,-0.00375
38,-0.005,0,1,-0.00375
38.199,-0.005,0,1,-0.00375
38.4,-0.005,0,1,-0.00375
38.6,-0.005,0,1,-0.00375
38.8,-0.005,0,1,-0.00375
38.999,-0.005,0,1,-0.00375
39.199,-0.005,0,1,-0.00375
39.4,-0.005,0,1,-0.00375
39.6,-0.005,0,1,-0.00375
39.801,-0.005,0,1,-0.00375
40,-0.005,0,1,-0.00375
40.199,-0.005,0,1,-0.0039
40.4,-0.005,0,1,-0.0039
40.6,-0.005,0,1,-0.0039
40.8,-0.005,0,1,-0.0039
41.001,-0.005,0,1,-0.0039
41.201,-0.005,0,1,-0.0039
41.4,-0.005,0,1,-0.0039
41.6,-0.005,0,1,-0.0039
41.801,-0.005,0,1,-0.00405
42,-0.01,0,1,-0.00405
42.2,-0.005,0,1,-0.00405
42.4,-0.01,0,1,-0.00405
42.599,-0.005,0,1,-0.00405
42.799,-0.005,0,1,-0.00405
42.999,-0.005,0,1,-0.00405
43.199,-0.005,0,1,-0.00405
43.4,-0.005,0,1,-0.00405
43.599,-0.005,0,1,-0.0042
43.8,-0.005,0,1,-0.0042
44.001,-0.01,0,1,-0.0042
44.2,-0.01,0,1,-0.0042
44.4,-0.005,0,1,-0.0042
44.599,-0.005,0,1,-0.0042
44.8,-0.005,0,1,-0.0042
45.001,-0.005,0,1,-0.0042
45.2,-0.005,0,1,-0.0042
45.399,-0.005,0,1,-0.0042
45.6,-0.005,0,1,-0.0042
45.8,-0.005,0,1,-0.0042
46.001,-0.005,0,1,-0.0042
46.2,-0.005,0,1,-0.0042
46.4,-0.005,0,1,-0.0042
46.6,-0.005,0,1,-0.0042
46.8,-0.005,0,1,-0.0042
46.999,-0.005,0,1,-0.0042
47.199,-0.005,0,1,-0.0042
47.401,-0.005,0,1,-0.0042
47.6,-0.005,0,1,-0.00435
47.8,-0.005,0,1,-0.00435
48,-0.005,0,1,-0.00435
48.199,-0.005,0,1,-0.00435
48.4,-0.005,0,1,-0.00435
48.599,-0.005,0,1,-0.00435
48.799,-0.005,0,1,-0.00435
49,-0.005,0,1,-0.00435
49.2,-0.01,0,1,-0.00435
49.4,-0.005,0,1,-0.00435
49.601,-0.01,0,1,-0.00435
49.8,-0.005,0,1,-0.0045
50,-0.005,0,1,-0.0045
50.2,-0.005,0,1,-0.0045
50.4,-0.005,0,1,-0.0045
50.6,-0.005,0,1,-0.0045
50.8,-0.005,0,1,-0.0045
50.999,-0.005,0,1,-0.0045
51.201,-0.005,0,1,-0.0045
51.401,-0.005,0,1,-0.0045
51.6,-0.005,0,1,-0.0045
51.8,-0.005,0,1,-0.0045
52,-0.01,0,1,-0.00465
52.2,-0.005,0,1,-0.00465
52.4,-0.005,0,1,-0.00465
52.601,-0.005,0,1,-0.00465
52.8,-0.005,0,1,-0.00465
52.999,-0.005,0,1,-0.00465
53.2,-0.005,0,1,-0.00465
53.401,-0.01,0,1,-0.00465
53.6,-0.005,0,1,-0.00465
53.8,-0.01,0,1,-0.00465
54,-0.01,0,1,-0.00465
54.2,-0.01,0,1,-0.00465
54.4,-0.01,0,1,-0.00465
54.6,-0.005,0,1,-0.0048
54.8,-0.01,0,1,-0.0048
54.999,-0.005,0,1,-0.0048
55.2,-0.01,0,1,-0.0048
55.4,-0.005,0,1,-0.0048
55.6,-0.01,0,1,-0.0048
55.801,-0.01,0,1,-0.0048
55.999,-0.005,0,1,-0.0048
56.199,-0.005,0,1,-0.0048
56.4,-0.01,0,1,-0.0048
56.6,-0.01,0,1,-0.0048
56.8,-0.01,0,1,-0.0048
57,-0.01,0,1,-0.0048
57.199,-0.01,0,1,-0.0048
57.4,-0.01,0,1,-0.00495
57.599,-0.01,0,1,-0.00495
57.8,-0.01,0,1,-0.00495
58,-0.01,0,1,-0.00495
58.2,-0.01,0,1,-0.00495
58.4,-0.01,0,1,-0.00495
58.6,-0.01,0,1,-0.00495
58.8,-0.01,0,1,-0.00495
59,-0.01,0,1,-0.0051
59.2,-0.01,0,1,-0.0051
59.399,-0.01,0,1,-0.0051
59.601,-0.01,0,1,-0.0051
59.799,-0.01,0,1,-0.0051
60,-0.01,0,1,-0.0051
60.2,-0.01,0,1,-0.0051
60.4,-0.01,0,1,-0.0051
60.599,-0.01,0,1,-0.0051
60.8,-0.01,0,1,-0.0051
61,-0.01,0,1,-0.0051
61.199,-0.01,0,1,-0.0051
61.399,-0.01,0,1,-0.0051
61.6,-0.01,0,1,-0.00525
61.8,-0.01,0,1,-0.00525
62,-0.01,0,1,-0.00525
62.201,-0.01,0,1,-0.00525
62.4,-0.01,0,1,-0.00525
62.6,-0.01,0,1,-0.00525
62.8,-0.01,0,1,-0.00525
63,-0.01,0,1,-0.00525
63.2,-0.01,0,1,-0.00525
63.399,-0.01,0,1,-0.00525
63.599,-0.01,0,1,-0.00525
63.8,-0.01,0,1,-0.00525
64,-0.01,0,1,-0.00525
64.2,-0.01,0,1,-0.00525
64.399,-0.01,0,1,-0.00525
64.599,-0.01,0,1,-0.00525
64.8,-0.01,0,1,-0.00525
65,-0.01,0,1,-0.00525
65.2,-0.01,0,1,-0.00525
65.4,-0.01,0,1,-0.00525
65.6,-0.01,0,1,-0.0054
65.801,-0.01,0,1,-0.0054
66,-0.01,0,1,-0.0054
66.2,-0.01,0,1,-0.0054
66.4,-0.01,0,1,-0.0054
66.599,-0.01,0,1,-0.0054
66.799,-0.01,0,1,-0.0054
67,-0.01,0,1,-0.0054
67.2,-0.01,0,1,-0.0054
67.4,-0.01,0,1,-0.0054
67.6,-0.01,0,1,-0.0054
67.8,-0.01,0,1,-0.0054
68,-0.01,0,1,-0.00555
68.2,-0.01,0,1,-0.00555
68.4,-0.01,0,1,-0.00555
68.6,-0.01,0,1,-0.00555
68.8,-0.01,0,1,-0.00555
69,-0.01,0,1,-0.00555
69.2,-0.01,0,1,-0.00555
69.399,-0.01,0,1,-0.00555
69.599,-0.01,0,1,-0.00555
69.799,-0.01,0,1,-0.00555
70,-0.01,0,1,-0.00555
70.201,-0.01,0,1,-0.0057
70.4,-0.01,0,1,-0.0057
70.6,-0.01,0,1,-0.0057
70.799,-0.01,0,1,-0.0057
71,-0.01,0,1,-0.0057
71.2,-0.01,0,1,-0.0057
71.399,-0.01,0,1,-0.0057
71.6,-0.01,0,1,-0.0057
71.8,-0.01,0,1,-0.0057
71.999,-0.01,0,1,-0.0057
72.199,-0.01,0,1,-0.0057
72.4,-0.01,0,1,-0.0057
72.6,-0.01,0,1,-0.0057
72.8,-0.01,0,1,-0.0057
73,-0.01,0,1,-0.0057
73.199,-0.01,0,1,-0.00585
73.399,-0.01,0,1,-0.00585
73.6,-0.01,0,1,-0.00585
73.8,-0.01,0,1,-0.00585
74,-0.01,0,1,-0.00585
74.2,-0.01,0,1,-0.00585
74.401,-0.01,0,1,-0.00585
74.599,-0.01,0,1,-0.00585
74.8,-0.01,0,1,-0.00585
74.999,-0.01,0,1,-0.00585
75.202,-0.01,0,1,-0.00585
75.4,-0.01,0,1,-0.00585
75.6,-0.01,0,1,-0.006
75.8,-0.01,0,1,-0.006
76,-0.01,0,1,-0.006
76.2,-0.01,0,1,-0.006
76.401,-0.01,0,1,-0.006
76.599,-0.01,0,1,-0.006
76.8,-0.01,0,1,-0.006
77,-0.01,0,1,-0.006
77.199,-0.01,0,1,-0.006
77.399,-0.01,0,1,-0.00615
77.599,-0.01,0,1,-0.00615
77.8,-0.01,0,1,-0.00615
78,-0.01,0,1,-0.00615
78.199,-0.01,0,1,-0.00615
78.4,-0.01,0,1,-0.00615
78.6,-0.01,0,1,-0.00615
78.799,-0.01,0,1,-0.00615
79,-0.01,0,1,-0.00615
79.201,-0.01,0,1,-0.00615
79.399,-0.01,0,1,-0.00615
79.6,-0.01,0,1,-0.00615
79.799,-0.01,0,1,-0.00615
79.999,-0.01,0,1,-0.00615
80.2,-0.01,0,1,-0.00615
80.401,-0.005,0,1,-0.00615
80.6,-0.01,0,1,-0.00615
80.8,-0.01,0,1,-0.00615
81,-0.01,0,1,-0.00615
81.199,-0.01,0,1,-0.00615
81.401,-0.01,0,1,-0.00615
81.6,-0.01,0,1,-0.00615
81.799,-0.01,0,1,-0.0063
82,-0.01,0,1,-0.0063
82.2,-0.01,0,1,-0.00615
82.4,-0.01,0,1,-0.00615
82.6,-0.01,0,1,-0.0063
82.8,-0.01,0,1,-0.0063
83,-0.01,0,1,-0.0063
83.2,-0.01,0,1,-0.0063
83.4,-0.01,0,1,-0.0063
83.601,-0.01,0,1,-0.0063
83.8,-0.005,0,1,-0.0063
84.001,-0.005,0,1,-0.0063
84.2,-0.01,0,1,-0.0063
84.4,-0.005,0,1,-0.0063
84.6,-0.01,0,1,-0.0063
84.8,-0.005,0,1,-0.00645
84.999,-0.01,0,1,-0.00645
85.2,-0.005,0,1,-0.00645
85.401,-0.01,0,1,-0.00645
85.6,-0.005,0,1,-0.00645
85.8,-0.01,0,1,-0.00645
85.999,-0.005,0,1,-0.00645
86.2,-0.005,0,1,-0.00645
86.4,-0.005,0,1,-0.00645
86.6,-0.005,0,1,-0.00645
86.8,-0.005,0,1,-0.00645
87,-0.005,0,1,-0.00645
87.2,-0.005,0,1,-0.00645
87.4,-0.005,0,1,-0.00645
87.6,-0.01,0,1,-0.00645
87.8,-0.005,0,1,-0.00645
88,-0.005,0,1,-0.00645
88.2,-0.005,0,1,-0.00645
88.399,-0.005,0,1,-0.0066
88.599,-0.01,0,1,-0.0066
88.8,-0.005,0,1,-0.0066
88.999,-0.005,0,1,-0.0066
89.199,-0.01,0,1,-0.0066
89.4,-0.005,0,1,-0.0066
89.6,-0.005,0,1,-0.0066
89.799,-0.005,0,1,-0.0066
90,-0.005,0,1,-0.0066
90.2,-0.005,0,1,-0.0066
90.4,-0.005,0,1,-0.0066
90.6,-0.005,0,1,-0.0066
90.8,-0.005,0,1,-0.00675
91,-0.005,0,1,-0.00675
91.2,-0.005,0,1,-0.00675
91.4,-0.005,0,1,-0.00675
91.6,-0.005,0,1,-0.00675
91.8,-0.005,0,1,-0.00675
92,-0.01,0,1,-0.00675
92.199,-0.005,0,1,-0.00675
92.4,-0.005,0,1,-0.00675
92.599,-0.005,0,1,-0.00675
92.8,-0.01,0,1,-0.00675
93,-0.01,0,1,-0.00675
93.199,-0.01,0,1,-0.00675
93.399,-0.01,0,1,-0.00675
93.6,-0.005,0,1,-0.00675
93.799,-0.005,0,1,-0.00675
93.999,-0.005,0,1,-0.00675
94.199,-0.01,0,1,-0.00675
94.4,-0.005,0,1,-0.00675
94.599,-0.01,0,1,-0.00675
94.799,-0.005,0,1,-0.00675
95,-0.005,0,1,-0.00675
95.2,-0.005,0,1,-0.00675
95.399,-0.005,0,1,-0.00675
95.6,-0.005,0,1,-0.00675
95.799,-0.005,0,1,-0.00675
95.999,-0.005,0,1,-0.00675
96.2,-0.005,0,1,-0.0069
96.399,-0.005,0,1,-0.0069
96.6,-0.005,0,1,-0.0069
96.8,-0.005,0,1,-0.0069
97,-0.005,0,1,-0.0069
97.2,-0.005,0,1,-0.0069
97.401,-0.005,0,1,-0.0069
97.6,-0.005,0,1,-0.0069
97.8,-0.005,0,1,-0.0069
98,-0.005,0,1,-0.0069
98.201,-0.005,0,1,-0.0069
98.401,-0.005,0,1,-0.0069
98.599,-0.005,0,1,-0.0069
98.799,-0.005,0,1,-0.00705
98.999,-0.005,0,1,-0.00705
99.2,-0.005,0,1,-0.00705
99.399,-0.005,0,1,-0.00705
99.6,-0.005,0,1,-0.00705
99.8,-0.005,0,1,-0.00705
99.999,-0.005,0,1,-0.00705
100.199,-0.005,0,1,-0.00705
100.4,-0.005,0,1,-0.00705
100.6,-0.005,0,1,-0.00705
100.799,-0.005,0,1,-0.00705
101,-0.005,0,1,-0.00705
101.2,-0.005,0,1,-0.00705
101.4,-0.005,0,1,-0.00705
101.6,-0.005,0,1,-0.00705
101.799,-0.005,0,1,-0.00705
101.999,-0.005,0,1,-0.00705
102.199,-0.005,0,1,-0.00705
102.401,-0.005,0,1,-0.00705
102.6,-0.005,0,1,-0.00705
102.8,-0.005,0,1,-0.0072
103.001,-0.01,0,1,-0.0072
103.2,-0.005,0,1,-0.0072
103.399,-0.005,0,1,-0.0072
103.6,-0.01,0,1,-0.0072
103.8,-0.005,0,1,-0.0072
104,-0.005,0,1,-0.0072
104.2,-0.005,0,1,-0.0072
104.4,-0.005,0,1,-0.0072
104.599,-0.005,0,1,-0.0072
104.799,-0.005,0,1,-0.0072
105,-0.005,0,1,-0.0072
105.2,-0.005,0,1,-0.0072
105.4,-0.005,0,1,-0.0072
105.6,-0.005,0,1,-0.0072
105.799,-0.005,0,1,-0.0072
106,-0.005,0,1,-0.0072
106.201,-0.005,0,1,-0.0072
106.4,-0.01,0,1,-0.00735
106.6,-0.005,0,1,-0.00735
106.799,-0.005,0,1,-0.00735
107,-0.005,0,1,-0.00735
107.2,-0.005,0,1,-0.00735
107.4,-0.005,0,1,-0.00735
107.6,-0.005,0,1,-0.00735
107.8,-0.005,0,1,-0.00735
108,-0.005,0,1,-0.00735
108.199,-0.005,0,1,-0.00735
108.4,-0.005,0,1,-0.00735
108.6,-0.005,0,1,-0.00735
108.799,-0.005,0,1,-0.00735
109,-0.005,0,1,-0.00735
109.2,-0.005,0,1,-0.00735
109.4,-0.005,0,1,-0.00735
109.6,-0.005,0,1,-0.00735
109.799,-0.005,0,1,-0.0075
110,-0.005,0,1,-0.0075
110.201,-0.005,0,1,-0.0075
110.399,-0.01,0,1,-0.0075
110.6,-0.005,0,1,-0.0075
110.799,-0.005,0,1,-0.0075
111,-0.005,0,1,-0.0075
111.199,-0.005,0,1,-0.0075
111.399,-0.005,0,1,-0.0075
111.599,-0.005,0,1,-0.0075
111.8,-0.005,0,1,-0.0075
111.999,-0.005,0,1,-0.0075
112.199,-0.005,0,1,-0.0075
112.4,-0.01,0,1,-0.0075
112.6,-0.005,0,1,-0.0075
112.799,-0.005,0,1,-0.0075
112.999,-0.005,0,1,-0.0075
113.2,-0.01,0,1,-0.0075
113.399,-0.005,0,1,-0.0075
113.601,-0.005,0,1,-0.0075
113.799,-0.005,0,1,-0.0075
114,-0.005,0,1,-0.0075
114.2,-0.005,0,1,-0.0075
114.399,-0.005,0,1,-0.0075
114.599,-0.005,0,1,-0.00765
114.8,-0.005,0,1,-0.00765
115,-0.005,0,1,-0.00765
115.199,-0.005,0,1,-0.00765
115.399,-0.005,0,1,-0.00765
115.6,-0.005,0,1,-0.00765
115.8,-0.005,0,1,-0.00765
116,-0.005,0,1,-0.00765
116.2,-0.005,0,1,-0.00765
116.4,-0.005,0,1,-0.00765
116.6,-0.005,0,1,-0.00765
116.8,-0.005,0,1,-0.00765
116.999,-0.005,0,1,-0.00765
117.199,-0.005,0,1,-0.00765
117.4,-0.005,0,1,-0.00765
117.599,-0.005,0,1,-0.00765
117.8,-0.01,0,1,-0.00765
118,-0.005,0,1,-0.00765
118.2,-0.005,0,1,-0.00765
118.4,-0.005,0,1,-0.0078
118.6,-0.005,0,1,-0.0078
118.8,-0.005,0,1,-0.0078
119,-0.005,0,1,-0.0078
119.2,-0.005,0,1,-0.0078
119.4,-0.005,0,1,-0.0078
119.6,-0.005,0,1,-0.0078
119.8,-0.005,0,1,-0.0078
119.999,-0.005,0,1,-0.0078
120.2,-0.005,0,1,-0.0078
120.4,-0.005,0,1,-0.0078
120.6,-0.005,0,1,-0.0078
120.8,-0.005,0,1,-0.0078
121,-0.005,0,1,-0.0078
121.2,-0.005,0,1,-0.0078
121.4,-0.005,0,1,-0.0078
121.6,-0.005,0,1,-0.0078
121.801,-0.005,0,1,-0.00795
122,-0.005,0,1,-0.00795
122.2,-0.01,0,1,-0.00795
122.4,-0.005,0,1,-0.00795
122.599,-0.005,0,1,-0.00795
122.8,-0.005,0,1,-0.00795
122.999,-0.01,0,1,-0.00795
123.2,-0.01,0,1,-0.00795
123.4,-0.005,0,1,-0.00795
123.6,-0.005,0,1,-0.00795
123.799,-0.005,0,1,-0.00795
124,-0.01,0,1,-0.00795
124.201,-0.005,0,1,-0.00795
124.399,-0.005,0,1,-0.00795
124.601,-0.01,0,1,-0.00795
124.8,-0.005,0,1,-0.00795
124.999,-0.005,0,1,-0.00795
125.2,-0.005,0,1,-0.00795
125.4,-0.005,0,1,-0.00795
125.6,-0.005,0,1,-0.00795
125.8,-0.005,0,1,-0.00795
126,-0.01,0,1,-0.00795
126.2,-0.005,0,1,-0.0081
126.4,-0.005,0,1,-0.0081
126.6,-0.005,0,1,-0.0081
126.8,-0.005,0,1,-0.0081
126.999,-0.005,0,1,-0.0081
127.2,-0.005,0,1,-0.0081
127.4,-0.005,0,1,-0.0081
127.6,-0.005,0,1,-0.0081
127.8,-0.005,0,1,-0.0081
128,-0.005,0,1,-0.0081
128.2,-0.005,0,1,-0.0081
128.4,-0.005,0,1,-0.0081
128.6,-0.005,0,1,-0.0081
128.8,-0.005,0,1,-0.0081
129,-0.005,0,1,-0.0081
129.199,-0.01,0,1,-0.0081
129.401,-0.005,0,1,-0.0081
129.6,-0.01,0,1,-0.0081
129.8,-0.005,0,1,-0.0081
129.999,-0.01,0,1,-0.0081
130.2,-0.005,0,1,-0.0081
130.4,-0.005,0,1,-0.0081
130.599,-0.005,0,1,-0.0081
130.8,-0.005,0,1,-0.0081
130.999,-0.005,0,1,-0.0081
131.2,-0.005,0,1,-0.0081
131.4,-0.01,0,1,-0.0081
131.6,-0.005,0,1,-0.00825
131.8,-0.005,0,1,-0.00825
132,-0.005,0,1,-0.00825
132.201,-0.005,0,1,-0.00825
132.4,-0.005,0,1,-0.00825
132.6,-0.01,0,1,-0.00825
132.801,-0.005,0,1,-0.00825
133,-0.005,0,1,-0.00825
133.2,-0.005,0,1,-0.00825
133.4,-0.005,0,1,-0.00825
133.599,-0.005,0,1,-0.00825
133.8,-0.005,0,1,-0.00825
134,-0.005,0,1,-0.00825
134.2,-0.005,0,1,-0.00825
134.401,-0.005,0,1,-0.00825
134.6,-0.01,0,1,-0.00825
134.8,-0.005,0,1,-0.00825
134.999,-0.005,0,1,-0.00825
135.199,-0.005,0,1,-0.00825
135.399,-0.005,0,1,-0.00825
135.6,-0.005,0,1,-0.00825
135.8,-0.005,0,1,-0.00825
136,-0.005,0,1,-0.00825
136.2,-0.005,0,1,-0.00825
136.4,-0.01,0,1,-0.00825
136.6,-0.005,0,1,-0.0084
136.8,-0.005,0,1,-0.0084
136.999,-0.01,0,1,-0.0084
137.201,-0.005,0,1,-0.0084
137.4,-0.005,0,1,-0.0084
137.6,-0.005,0,1,-0.0084
137.8,-0.005,0,1,-0.0084
138.001,-0.005,0,1,-0.0084
138.2,-0.005,0,1,-0.0084
138.401,-0.005,0,1,-0.0084
138.6,-0.005,0,1,-0.0084
138.8,-0.005,0,1,-0.0084
138.999,-0.005,0,1,-0.0084
139.201,-0.005,0,1,-0.0084
139.4,-0.005,0,1,-0.0084
139.599,-0.005,0,1,-0.0084
139.8,-0.005,0,1,-0.0084
139.999,-0.005,0,1,-0.00855
140.2,-0.005,0,1,-0.00855
140.401,-0.005,0,1,-0.00855
140.599,-0.01,0,1,-0.00855
140.8,-0.005,0,1,-0.00855
141,-0.005,0,1,-0.00855
141.2,-0.005,0,1,-0.00855
141.401,-0.005,0,1,-0.00855
141.6,-0.005,0,1,-0.00855
141.8,-0.005,0,1,-0.00855
142,-0.005,0,1,-0.00855
142.2,-0.01,0,1,-0.00855
142.4,-0.005,0,1,-0.00855
142.6,-0.005,0,1,-0.00855
142.799,-0.005,0,1,-0.00855
143,-0.005,0,1,-0.00855
143.2,-0.005,0,1,-0.00855
143.4,-0.005,0,1,-0.00855
143.6,-0.005,0,1,-0.00855
143.799,-0.005,0,1,-0.00855
144,-0.005,0,1,-0.00855
144.199,-0.005,0,1,-0.00855
144.4,-0.005,0,1,-0.00855
144.599,-0.005,0,1,-0.00855
144.801,-0.005,0,1,-0.00855
145,-0.005,0,1,-0.00855
145.2,-0.005,0,1,-0.0087
145.4,-0.005,0,1,-0.0087
145.6,-0.005,0,1,-0.0087
145.8,-0.005,0,1,-0.0087
145.999,-0.005,0,1,-0.0087
146.199,-0.005,0,1,-0.0087
146.4,-0.005,0,1,-0.0087
146.6,-0.005,0,1,-0.0087
146.8,-0.005,0,1,-0.0087
146.999,-0.005,0,1,-0.0087
147.2,-0.01,0,1,-0.0087
147.4,-0.005,0,1,-0.0087
147.6,-0.005,0,1,-0.0087
147.799,-0.005,0,1,-0.0087
148,-0.005,0,1,-0.0087
148.2,-0.005,0,1,-0.0087
148.401,-0.005,0,1,-0.0087
148.6,-0.005,0,1,-0.0087
148.799,-0.005,0,1,-0.0087
149,-0.005,0,1,-0.0087
149.2,-0.005,0,1,-0.0087
149.4,-0.005,0,1,-0.0087
149.599,-0.005,0,1,-0.0087
149.799,-0.005,0,1,-0.0087
150,-0.005,0,1,-0.0087
150.2,-0.005,0,1,-0.0087
150.4,-0.005,0,1,-0.0087
150.599,-0.005,0,1,-0.0087
150.8,-0.005,0,1,-0.0087
151,-0.005,0,1,-0.0087
151.2,-0.01,0,1,-0.0087
151.399,-0.01,0,1,-0.0087
151.599,-0.005,0,1,-0.0087
151.8,-0.005,0,1,-0.0087
152,-0.005,0,1,-0.00885
152.201,-0.005,0,1,-0.00885
152.401,-0.005,0,1,-0.00885
152.599,-0.01,0,1,-0.00885
152.8,-0.005,0,1,-0.00885
153.001,-0.005,0,1,-0.00885
153.2,-0.005,0,1,-0.00885
153.401,-0.005,0,1,-0.00885
153.6,-0.005,0,1,-0.00885
153.799,-0.005,0,1,-0.00885
154,-0.01,0,1,-0.00885
154.2,-0.005,0,1,-0.00885
154.4,-0.01,0,1,-0.00885
154.599,-0.005,0,1,-0.00885
154.799,-0.005,0,1,-0.00885
155,-0.005,0,1,-0.00885
155.199,-0.005,0,1,-0.00885
155.4,-0.005,0,1,-0.00885
155.599,-0.005,0,1,-0.00885
155.8,-0.005,0,1,-0.00885
156,-0.01,0,1,-0.00885
156.2,-0.005,0,1,-0.00885
156.4,-0.005,0,1,-0.00885
156.599,-0.005,0,1,-0.009
156.801,-0.005,0,1,-0.009
157,-0.005,0,1,-0.009
157.2,-0.005,0,1,-0.009
157.4,-0.005,0,1,-0.009
157.599,-0.005,0,1,-0.009
157.801,-0.005,0,1,-0.009
158,-0.005,0,1,-0.009
158.2,-0.005,0,1,-0.009
158.4,-0.005,0,1,-0.009
158.6,-0.005,0,1,-0.009
158.8,-0.005,0,1,-0.009
158.999,-0.005,0,1,-0.009
159.2,-0.005,0,1,-0.009
159.401,-0.005,0,1,-0.009
159.6,-0.005,0,1,-0.009
159.799,-0.005,0,1,-0.009
160,-0.005,0,1,-0.009
160.2,-0.005,0,1,-0.009
160.4,-0.005,0,1,-0.009
160.6,-0.005,0,1,-0.009
160.799,-0.005,0,1,-0.009
161,-0.005,0,1,-0.009
161.2,-0.005,0,1,-0.009
161.4,-0.005,0,1,-0.009
161.6,-0.005,0,1,-0.009
161.799,-0.01,0,1,-0.009
162,-0.005,0,1,-0.009
162.2,-0.005,0,1,-0.009
162.401,-0.005,0,1,-0.009
162.6,-0.005,0,1,-0.009
162.8,-0.005,0,1,-0.009
163,-0.005,0,1,-0.00915
163.199,-0.005,0,1,-0.00915
163.399,-0.005,0,1,-0.00915
163.6,-0.005,0,1,-0.00915
163.8,-0.005,0,1,-0.00915
163.999,-0.01,0,1,-0.00915
164.2,-0.005,0,1,-0.00915
164.399,-0.01,0,1,-0.00915
164.6,-0.005,0,1,-0.00915
164.8,-0.005,0,1,-0.00915
165,-0.005,0,1,-0.00915
165.199,-0.005,0,1,-0.00915
165.4,-0.005,0,1,-0.00915
165.6,-0.005,0,1,-0.00915
165.8,-0.005,0,1,-0.00915
166,-0.005,0,1,-0.00915
166.2,-0.005,0,1,-0.00915
166.4,-0.005,0,1,-0.00915
166.6,-0.005,0,1,-0.00915
166.8,-0.005,0,1,-0.00915
167,-0.005,0,1,-0.00915
167.199,-0.01,0,1,-0.00915
167.399,-0.005,0,1,-0.00915
167.602,-0.005,0,1,-0.00915
167.8,-0.005,0,1,-0.00915
168,-0.01,0,1,-0.00915
168.2,-0.01,0,1,-0.00915
168.399,-0.005,0,1,-0.00915
168.6,-0.005,0,1,-0.00915
168.8,-0.005,0,1,-0.0093
169,-0.005,0,1,-0.0093
169.199,-0.005,0,1,-0.0093
169.4,-0.01,0,1,-0.0093
169.6,-0.005,0,1,-0.0093
169.799,-0.005,0,1,-0.0093
170,-0.01,0,1,-0.0093
170.199,-0.01,0,1,-0.0093
170.4,-0.005,0,1,-0.0093
170.601,-0.005,0,1,-0.0093
170.799,-0.01,0,1,-0.0093
171,-0.005,0,1,-0.0093
171.2,-0.005,0,1,-0.0093
171.4,-0.005,0,1,-0.0093
171.601,-0.005,0,1,-0.0093
171.801,-0.005,0,1,-0.0093
171.999,-0.005,0,1,-0.0093
172.2,-0.005,0,1,-0.0093
172.4,-0.01,0,1,-0.0093
172.601,-0.005,0,1,-0.0093
172.801,-0.005,0,1,-0.0093
172.999,-0.01,0,1,-0.0093
173.199,-0.005,0,1,-0.0093
173.4,-0.005,0,1,-0.0093
173.6,-0.005,0,1,-0.0093
173.8,-0.005,0,1,-0.0093
174,-0.005,0,1,-0.0093
174.199,-0.005,0,1,-0.0093
174.4,-0.005,0,1,-0.0093
174.6,-0.005,0,1,-0.0093
174.8,-0.005,0,1,-0.0093
175,-0.005,0,1,-0.0093
175.2,-0.005,0,1,-0.0093
175.401,-0.005,0,1,-0.0093
175.6,-0.005,0,1,-0.00945
175.8,-0.005,0,1,-0.00945
176,-0.01,0,1,-0.00945
176.2,-0.005,0,1,-0.00945
176.401,-0.005,0,1,-0.00945
176.6,-0.005,0,1,-0.00945
176.799,-0.01,0,1,-0.00945
177,-0.005,0,1,-0.00945
177.2,-0.005,0,1,-0.00945
177.4,-0.005,0,1,-0.00945
177.599,-0.005,0,1,-0.00945
177.799,-0.005,0,1,-0.00945
178.001,-0.005,0,1,-0.00945
178.199,-0.005,0,1,-0.00945
178.399,-0.005,0,1,-0.00945
178.6,-0.005,0,1,-0.00945
178.8,-0.005,0,1,-0.00945
179,-0.005,0,1,-0.00945
179.2,-0.005,0,1,-0.00945
179.4,-0.005,0,1,-0.00945
179.6,-0.005,0,1,-0.00945
179.8,-0.005,0,1,-0.00945
180,-0.005,0,1,-0.00945
180.2,-0.01,0,1,-0.00945
180.401,-0.005,0,1,-0.00945
180.6,-0.005,0,1,-0.00945
180.8,-0.005,0,1,-0.00945
180.999,-0.005,0,1,-0.00945
181.199,-0.005,0,1,-0.00945
181.401,-0.005,0,1,-0.00945
181.6,-0.005,0,1,-0.00945
181.8,-0.005,0,1,-0.00945
182.001,-0.005,0,1,-0.0096
182.2,-0.005,0,1,-0.0096
182.399,-0.01,0,1,-0.0096
182.599,-0.005,0,1,-0.0096
182.8,-0.005,0,1,-0.0096
183,-0.005,0,1,-0.0096
183.2,-0.005,0,1,-0.0096
183.399,-0.01,0,1,-0.0096
183.599,-0.01,0,1,-0.0096
183.8,-0.005,0,1,-0.0096
184,-0.005,0,1,-0.0096
184.2,-0.005,0,1,-0.0096
184.399,-0.005,0,1,-0.0096
184.599,-0.005,0,1,-0.0096
184.8,-0.005,0,1,-0.0096
185,-0.01,0,1,-0.0096
185.2,-0.005,0,1,-0.0096
185.4,-0.005,0,1,-0.0096
185.6,-0.005,0,1,-0.0096
185.8,-0.005,0,1,-0.0096
186.001,-0.005,0,1,-0.0096
186.2,-0.005,0,1,-0.0096
186.399,-0.005,0,1,-0.0096
186.6,-0.005,0,1,-0.0096
186.8,-0.005,0,1,-0.0096
186.999,-0.01,0,1,-0.0096
187.201,-0.005,0,1,-0.0096
187.4,-0.005,0,1,-0.0096
187.6,-0.005,0,1,-0.0096
187.8,-0.005,0,1,-0.0096
188,-0.005,0,1,-0.0096
188.2,-0.01,0,1,-0.0096
188.401,-0.005,0,1,-0.0096
188.6,-0.005,0,1,-0.0096
188.8,-0.005,0,1,-0.0096
189.001,-0.005,0,1,-0.0096
189.2,-0.005,0,1,-0.0096
189.4,-0.005,0,1,-0.0096
189.6,-0.005,0,1,-0.00975
189.801,-0.005,0,1,-0.00975
189.999,-0.005,0,1,-0.00975
190.2,-0.01,0,1,-0.00975
190.4,-0.005,0,1,-0.00975
190.6,-0.005,0,1,-0.00975
190.8,-0.005,0,1,-0.00975
191,-0.005,0,1,-0.00975
191.201,-0.005,0,1,-0.00975
191.4,-0.005,0,1,-0.00975
191.599,-0.005,0,1,-0.00975
191.8,-0.005,0,1,-0.00975
192.001,-0.005,0,1,-0.00975
192.199,-0.005,0,1,-0.00975
192.401,-0.005,0,1,-0.00975
192.6,-0.005,0,1,-0.00975
192.799,-0.005,0,1,-0.00975
193.001,-0.005,0,1,-0.00975
193.2,-0.01,0,1,-0.00975
193.4,-0.01,0,1,-0.00975
193.6,-0.005,0,1,-0.00975
193.801,-0.01,0,1,-0.00975
194,-0.005,0,1,-0.00975
194.2,-0.005,0,1,-0.00975
194.399,-0.005,0,1,-0.00975
194.6,-0.005,0,1,-0.00975
194.8,-0.01,0,1,-0.00975
195,-0.005,0,1,-0.00975
195.199,-0.01,0,1,-0.00975
195.4,-0.005,0,1,-0.00975
195.6,-0.005,0,1,-0.00975
195.799,-0.005,0,1,-0.00975
195.999,-0.005,0,1,-0.00975
196.2,-0.01,0,1,-0.00975
196.4,-0.005,0,1,-0.00975
196.6,-0.005,0,1,-0.00975
196.8,-0.005,0,1,-0.00975
197,-0.005,0,1,-0.00975
197.2,-0.01,0,1,-0.00975
197.4,-0.005,0,1,-0.0099
197.6,-0.005,0,1,-0.0099
197.801,-0.01,0,1,-0.0099
198,-0.005,0,1,-0.0099
198.2,-0.01,0,1,-0.0099
198.4,-0.005,0,1,-0.0099
198.6,-0.005,0,1,-0.0099
198.799,-0.01,0,1,-0.0099
199,-0.005,0,1,-0.0099
199.2,-0.005,0,1,-0.0099
199.4,-0.01,0,1,-0.0099
199.6,-0.005,0,1,-0.0099
199.801,-0.005,0,1,-0.0099
200,-0.005,0,1,-0.0099
200.199,-0.01,0,1,-0.0099
200.401,-0.005,0,1,-0.0099
200.6,-0.01,0,1,-0.0099
200.8,-0.005,0,1,-0.0099
201,-0.01,0,1,-0.0099
201.2,-0.005,0,1,-0.0099
201.399,-0.01,0,1,-0.0099
201.6,-0.005,0,1,-0.0099
201.8,-0.005,0,1,-0.0099
201.999,-0.01,0,1,-0.0099
202.199,-0.01,0,1,-0.0099
202.4,-0.005,0,1,-0.0099
202.599,-0.01,0,1,-0.0099
202.801,-0.005,0,1,-0.0099
203,-0.005,0,1,-0.0099
203.199,-0.005,0,1,-0.0099
203.4,-0.005,0,1,-0.0099
203.6,-0.005,0,1,-0.0099
203.799,-0.01,0,1,-0.0099
203.999,-0.01,0,1,-0.0099
204.2,-0.005,0,1,-0.0099
204.399,-0.01,0,1,-0.0099
204.6,-0.01,0,1,-0.0099
204.8,-0.01,0,1,-0.0099
205,-0.005,0,1,-0.01005
205.2,-0.005,0,1,-0.0099
205.399,-0.005,0,1,-0.0099
205.6,-0.01,0,1,-0.01005
205.8,-0.005,0,1,-0.01005
206,-0.005,0,1,-0.01005
206.2,-0.01,0,1,-0.01005
206.4,-0.005,0,1,-0.01005
206.6,-0.01,0,1,-0.01005
206.8,-0.01,0,1,-0.01005
206.999,-0.01,0,1,-0.01005
207.2,-0.01,0,1,-0.01005
207.4,-0.01,0,1,-0.01005
207.599,-0.01,0,1,-0.01005
207.8,-0.01,0,1,-0.01005
208,-0.005,0,1,-0.01005
208.2,-0.005,0,1,-0.01005
208.4,-0.005,0,1,-0.01005
208.6,-0.005,0,1,-0.01005
208.801,-0.005,0,1,-0.01005
209,-0.005,0,1,-0.01005
209.2,-0.005,0,1,-0.01005
209.4,-0.005,0,1,-0.01005
209.6,-0.005,0,1,-0.01005
209.799,-0.005,0,1,-0.01005
210,-0.005,0,1,-0.01005
210.2,-0.005,0,1,-0.01005
210.401,-0.005,0,1,-0.01005
210.599,-0.01,0,1,-0.01005
210.8,-0.005,0,1,-0.01005
211,-0.005,0,1,-0.01005
211.199,-0.005,0,1,-0.01005
211.4,-0.005,0,1,-0.01005
211.6,-0.005,0,1,-0.01005
211.8,-0.005,0,1,-0.01005
212,-0.005,0,1,-0.01005
212.2,-0.005,0,1,-0.01005
212.399,-0.005,0,1,-0.0102
212.6,-0.005,0,1,-0.0102
212.8,-0.005,0,1,-0.0102
212.999,-0.005,0,1,-0.0102
213.2,-0.005,0,1,-0.0102
213.4,-0.005,0,1,-0.0102
213.6,-0.005,0,1,-0.0102
213.801,-0.005,0,1,-0.0102
214,-0.005,0,1,-0.0102
214.2,-0.005,0,1,-0.0102
214.401,-0.005,0,1,-0.0102
214.6,-0.005,0,1,-0.0102
214.8,-0.005,0,1,-0.0102
215,-0.005,0,1,-0.0102
215.2,-0.01,0,1,-0.0102
215.399,-0.005,0,1,-0.0102
215.6,-0.005,0,1,-0.0102
215.801,-0.005,0,1,-0.0102
215.999,-0.005,0,1,-0.0102
216.199,-0.005,0,1,-0.0102
216.399,-0.005,0,1,-0.0102
216.6,-0.005,0,1,-0.0102
216.8,-0.005,0,1,-0.0102
217,-0.01,0,1,-0.0102
217.2,-0.005,0,1,-0.0102
217.399,-0.005,0,1,-0.0102
217.599,-0.005,0,1,-0.0102
217.8,-0.005,0,1,-0.0102
218.001,-0.005,0,1,-0.0102
218.199,-0.005,0,1,-0.0102
218.399,-0.005,0,1,-0.0102
218.6,-0.005,0,1,-0.0102
218.8,-0.005,0,1,-0.0102
219,-0.005,0,1,-0.0102
219.2,-0.005,0,1,-0.0102
219.4,-0.005,0,1,-0.0102
219.6,-0.005,0,1,-0.0102
219.8,-0.005,0,1,-0.0102
220,-0.005,0,1,-0.0102
220.199,-0.005,0,1,-0.0102
220.399,-0.005,0,1,-0.0102
220.601,-0.005,0,1,-0.0102
220.8,-0.005,0,1,-0.0102
221,-0.005,0,1,-0.0102
221.199,-0.005,0,1,-0.0102
221.401,-0.005,0,1,-0.0102
221.599,-0.005,0,1,-0.01035
221.8,-0.005,0,1,-0.01035
222,-0.005,0,1,-0.01035
222.2,-0.005,0,1,-0.01035
222.401,-0.005,0,1,-0.01035
222.6,-0.005,0,1,-0.01035
222.8,-0.005,0,1,-0.01035
222.999,-0.005,0,1,-0.01035
223.199,-0.005,0,1,-0.01035
223.399,-0.005,0,1,-0.01035
223.599,-0.005,0,1,-0.01035
223.799,-0.005,0,1,-0.01035
223.999,-0.005,0,1,-0.01035
224.201,-0.005,0,1,-0.01035
224.4,-0.005,0,1,-0.01035
224.599,-0.005,0,1,-0.01035
224.8,-0.005,0,1,-0.01035
225,-0.005,0,1,-0.01035
225.2,-0.005,0,1,-0.01035
225.4,-0.005,0,1,-0.01035
225.601,-0.005,0,1,-0.01035
225.8,-0.005,0,1,-0.01035
226,-0.005,0,1,-0.01035
226.2,-0.005,0,1,-0.01035
226.4,-0.005,0,1,-0.01035
226.599,-0.005,0,1,-0.01035
226.8,-0.005,0,1,-0.01035
227.001,-0.005,0,1,-0.01035
227.2,-0.005,0,1,-0.01035
227.4,-0.005,0,1,-0.01035
227.599,-0.005,0,1,-0.01035
227.8,-0.005,0,1,-0.01035
228.001,-0.005,0,1,-0.01035
228.2,-0.005,0,1,-0.01035
228.4,-0.005,0,1,-0.01035
228.6,-0.005,0,1,-0.01035
228.8,-0.005,0,1,-0.01035
229,-0.005,0,1,-0.01035
229.2,-0.005,0,1,-0.01035
229.4,-0.005,0,1,-0.01035
229.601,-0.01,0,1,-0.01035
229.801,-0.01,0,1,-0.01035
230.001,-0.005,0,1,-0.01035
230.201,-0.005,0,1,-0.01035
230.4,-0.005,0,1,-0.01035
230.6,-0.005,0,1,-0.0105
230.8,-0.005,0,1,-0.0105
230.999,-0.005,0,1,-0.0105
231.2,-0.005,0,1,-0.0105
231.401,-0.01,0,1,-0.0105
231.599,-0.005,0,1,-0.0105
231.801,-0.01,0,1,-0.0105
232,-0.005,0,1,-0.0105
232.2,-0.005,0,1,-0.0105
232.399,-0.005,0,1,-0.0105
232.599,-0.01,0,1,-0.0105
232.799,-0.005,0,1,-0.0105
233,-0.005,0,1,-0.0105
233.2,-0.005,0,1,-0.0105
233.399,-0.005,0,1,-0.0105
233.599,-0.005,0,1,-0.0105
233.8,-0.005,0,1,-0.0105
234,-0.005,0,1,-0.0105
234.201,-0.005,0,1,-0.0105
234.4,-0.005,0,1,-0.0105
234.601,-0.01,0,1,-0.0105
234.801,-0.005,0,1,-0.0105
235,-0.005,0,1,-0.0105
235.2,-0.01,0,1,-0.0105
235.4,-0.005,0,1,-0.0105
235.6,-0.005,0,1,-0.0105
235.8,-0.005,0,1,-0.0105
236.003,-0.01,0,1,-0.0105
236.201,-0.01,0,1,-0.0105
236.4,-0.005,0,1,-0.0105
236.6,-0.01,0,1,-0.0105
236.8,-0.01,0,1,-0.0105
237,-0.005,0,1,-0.0105
237.2,-0.01,0,1,-0.0105
237.4,-0.005,0,1,-0.0105
237.6,-0.01,0,1,-0.0105
237.8,-0.005,0,1,-0.0105
238,-0.005,0,1,-0.0105
238.2,-0.01,0,1,-0.0105
238.4,-0.01,0,1,-0.0105
238.6,-0.005,0,1,-0.0105
238.8,-0.01,0,1,-0.0105
239.001,-0.01,0,1,-0.0105
239.201,-0.01,0,1,-0.0105
239.4,-0.005,0,1,-0.0105
239.6,-0.01,0,1,-0.0105
239.8,-0.005,0,1,-0.0105
240,-0.005,0,1,-0.0105
240.2,-0.01,0,1,-0.0105
240.4,-0.01,0,1,-0.0105
240.6,-0.01,0,1,-0.01065
240.8,-0.01,0,1,-0.01065
241,-0.005,0,1,-0.01065
241.2,-0.01,0,1,-0.01065
241.4,-0.005,0,1,-0.01065
241.599,-0.01,0,1,-0.01065
241.801,-0.01,0,1,-0.01065
242,-0.01,0,1,-0.01065
242.2,-0.005,0,1,-0.01065
242.4,-0.01,0,1,-0.01065
242.599,-0.005,0,1,-0.01065
242.799,-0.01,0,1,-0.01065
243,-0.01,0,1,-0.01065
243.2,-0.01,0,1,-0.01065
243.4,-0.01,0,1,-0.01065
243.6,-0.01,0,1,-0.01065
243.8,-0.01,0,1,-0.01065
244,-0.01,0,1,-0.01065
244.2,-0.01,0,1,-0.01065
244.4,-0.01,0,1,-0.01065
244.599,-0.01,0,1,-0.01065
244.8,-0.01,0,1,-0.01065
244.999,-0.01,0,1,-0.01065
245.199,-0.01,0,1,-0.01065
245.401,-0.01,0,1,-0.01065
245.599,-0.01,0,1,-0.01065
245.8,-0.01,0,1,-0.01065
246,-0.01,0,1,-0.01065
246.2,-0.01,0,1,-0.01065
246.401,-0.01,0,1,-0.01065
246.6,-0.01,0,1,-0.01065
246.8,-0.01,0,1,-0.01065
247,-0.01,0,1,-0.01065
247.199,-0.01,0,1,-0.01065
247.4,-0.01,0,1,-0.01065
247.6,-0.01,0,1,-0.01065
247.801,-0.01,0,1,-0.01065
248,-0.01,0,1,-0.01065
248.2,-0.01,0,1,-0.01065
248.4,-0.01,0,1,-0.01065
248.601,-0.01,0,1,-0.01065
248.8,-0.01,0,1,-0.01065
249.001,-0.01,0,1,-0.01065
249.2,-0.01,0,1,-0.01065
249.4,-0.01,0,1,-0.01065
249.6,-0.01,0,1,-0.01065
249.8,-0.01,0,1,-0.01065
249.999,-0.01,0,1,-0.01065
250.2,-0.01,0,1,-0.01065
250.4,-0.01,0,1,-0.01065
250.6,-0.01,0,1,-0.01065
250.8,-0.01,0,1,-0.01065
251.001,-0.01,0,1,-0.01065
251.2,-0.01,0,1,-0.01065
251.4,-0.01,0,1,-0.01065
251.6,-0.01,0,1,-0.01065
251.8,-0.01,0,1,-0.01065
252,-0.01,0,1,-0.01065
252.2,-0.01,0,1,-0.0108
252.4,-0.01,0,1,-0.0108
252.6,-0.01,0,1,-0.0108
252.799,-0.01,0,1,-0.0108
253,-0.01,0,1,-0.0108
253.199,-0.01,0,1,-0.0108
253.4,-0.01,0,1,-0.0108
253.601,-0.01,0,1,-0.0108
253.801,-0.01,0,1,-0.0108
253.999,-0.01,0,1,-0.0108
254.2,-0.01,0,1,-0.0108
254.399,-0.01,0,1,-0.0108
254.599,-0.01,0,1,-0.0108
254.801,-0.01,0,1,-0.0108
255.001,-0.01,0,1,-0.0108
255.2,-0.01,0,1,-0.0108
255.4,-0.01,0,1,-0.0108
255.6,-0.01,0,1,-0.0108
255.799,-0.01,0,1,-0.0108
256,-0.01,0,1,-0.0108
256.2,-0.01,0,1,-0.0108
256.4,-0.01,0,1,-0.0108
256.6,-0.01,0,1,-0.0108
256.8,-0.01,0,1,-0.0108
257,-0.01,0,1,-0.0108
257.199,-0.01,0,1,-0.0108
257.4,-0.01,0,1,-0.0108
257.6,-0.01,0,1,-0.0108
257.8,-0.01,0,1,-0.0108
258,-0.01,0,1,-0.0108
258.199,-0.01,0,1,-0.0108
258.4,-0.01,0,1,-0.0108
258.6,-0.01,0,1,-0.0108
258.799,-0.01,0,1,-0.0108
259.001,-0.01,0,1,-0.0108
259.2,-0.01,0,1,-0.0108
259.4,-0.01,0,1,-0.0108
259.6,-0.01,0,1,-0.0108
259.8,-0.01,0,1,-0.0108
260,-0.01,0,1,-0.0108
260.2,-0.01,0,1,-0.0108
260.4,-0.01,0,1,-0.0108
260.6,-0.01,0,1,-0.0108
260.8,-0.01,0,1,-0.0108
261,-0.01,0,1,-0.0108
261.202,-0.01,0,1,-0.0108
261.4,-0.01,0,1,-0.0108
261.6,-0.01,0,1,-0.0108
261.801,-0.01,0,1,-0.0108
261.999,-0.01,0,1,-0.0108
262.2,-0.01,0,1,-0.01095
262.399,-0.01,0,1,-0.01095
262.6,-0.01,0,1,-0.01095
262.8,-0.01,0,1,-0.01095
263.001,-0.01,0,1,-0.01095
263.2,-0.01,0,1,-0.01095
263.4,-0.01,0,1,-0.01095
263.6,-0.01,0,1,-0.01095
263.801,-0.01,0,1,-0.01095
264,-0.01,0,1,-0.01095
264.2,-0.01,0,1,-0.01095
264.4,-0.01,0,1,-0.01095
264.6,-0.01,0,1,-0.01095
264.8,-0.01,0,1,-0.01095
264.999,-0.01,0,1,-0.01095
265.199,-0.01,0,1,-0.01095
265.4,-0.01,0,1,-0.01095
265.6,-0.01,0,1,-0.01095
265.8,-0.01,0,1,-0.01095
266,-0.01,0,1,-0.01095
266.2,-0.01,0,1,-0.01095
266.399,-0.01,0,1,-0.01095
266.6,-0.01,0,1,-0.01095
266.799,-0.01,0,1,-0.01095
267,-0.01,0,1,-0.01095
267.2,-0.01,0,1,-0.01095
267.4,-0.01,0,1,-0.01095
267.6,-0.01,0,1,-0.01095
267.799,-0.01,0,1,-0.01095
268,-0.01,0,1,-0.01095
268.199,-0.01,0,1,-0.01095
268.4,-0.01,0,1,-0.01095
268.599,-0.01,0,1,-0.01095
268.8,-0.01,0,1,-0.01095
268.999,-0.01,0,1,-0.01095
269.2,-0.01,0,1,-0.01095
269.399,-0.01,0,1,-0.01095
269.6,-0.01,0,1,-0.01095
269.801,-0.01,0,1,-0.01095
270,-0.01,0,1,-0.01095
270.2,-0.01,0,1,-0.01095
270.401,-0.01,0,1,-0.01095
270.6,-0.01,0,1,-0.01095
270.8,-0.01,0,1,-0.01095
271,-0.01,0,1,-0.01095
271.2,-0.005,0,1,-0.01095
271.4,-0.01,0,1,-0.01095
271.6,-0.01,0,1,-0.01095
271.799,-0.01,0,1,-0.01095
272,-0.01,0,1,-0.01095
272.2,-0.01,0,1,-0.01095
272.4,-0.01,0,1,-0.01095
272.6,-0.01,0,1,-0.01095
272.799,-0.01,0,1,-0.01095
272.999,-0.01,0,1,-0.01095
273.2,-0.01,0,1,-0.01095
273.399,-0.01,0,1,-0.01095
273.599,-0.01,0,1,-0.01095
273.8,-0.01,0,1,-0.01095
274.001,-0.01,0,1,-0.01095
274.2,-0.01,0,1,-0.01095
274.401,-0.005,0,1,-0.01095
274.599,-0.01,0,1,-0.01095
274.8,-0.01,0,1,-0.01095
275,-0.005,0,1,-0.0111
275.2,-0.005,0,1,-0.01095
275.399,-0.01,0,1,-0.0111
275.6,-0.005,0,1,-0.0111
275.8,-0.01,0,1,-0.0111
276,-0.01,0,1,-0.0111
276.201,-0.01,0,1,-0.0111
276.4,-0.01,0,1,-0.0111
276.6,-0.005,0,1,-0.0111
276.8,-0.01,0,1,-0.0111
277.001,-0.005,0,1,-0.0111
277.2,-0.005,0,1,-0.0111
277.401,-0.005,0,1,-0.0111
277.599,-0.005,0,1,-0.0111
277.799,-0.01,0,1,-0.0111
278,-0.01,0,1,-0.0111
278.2,-0.005,0,1,-0.0111
278.4,-0.01,0,1,-0.0111
278.6,-0.005,0,1,-0.0111
278.799,-0.01,0,1,-0.0111
279.001,-0.005,0,1,-0.0111
279.2,-0.005,0,1,-0.0111
279.4,-0.01,0,1,-0.0111
279.6,-0.005,0,1,-0.0111
279.801,-0.01,0,1,-0.0111
280.001,-0.005,0,1,-0.0111
280.2,-0.01,0,1,-0.0111
280.401,-0.005,0,1,-0.0111
280.6,-0.005,0,1,-0.0111
280.8,-0.005,0,1,-0.0111
281,-0.005,0,1,-0.0111
281.2,-0.005,0,1,-0.0111
281.401,-0.01,0,1,-0.0111
281.602,-0.005,0,1,-0.0111
281.8,-0.01,0,1,-0.0111
281.999,-0.005,0,1,-0.0111
282.2,-0.005,0,1,-0.0111
282.4,-0.005,0,1,-0.0111
282.6,-0.01,0,1,-0.0111
282.8,-0.005,0,1,-0.0111
283,-0.005,0,1,-0.0111
283.2,-0.005,0,1,-0.0111
283.4,-0.005,0,1,-0.0111
283.6,-0.005,0,1,-0.0111
283.8,-0.01,0,1,-0.0111
283.999,-0.005,0,1,-0.0111
284.2,-0.005,0,1,-0.0111
284.399,-0.005,0,1,-0.0111
284.6,-0.01,0,1,-0.0111
284.799,-0.005,0,1,-0.0111
285,-0.005,0,1,-0.0111
285.2,-0.005,0,1,-0.0111
285.4,-0.005,0,1,-0.0111
285.6,-0.005,0,1,-0.0111
285.801,-0.01,0,1,-0.0111
286,-0.005,0,1,-0.0111
286.2,-0.005,0,1,-0.0111
286.4,-0.01,0,1,-0.0111
286.6,-0.005,0,1,-0.0111
286.8,-0.005,0,1,-0.0111
287,-0.005,0,1,-0.01125
287.2,-0.005,0,1,-0.01125
287.4,-0.005,0,1,-0.01125
287.6,-0.005,0,1,-0.01125
287.799,-0.005,0,1,-0.01125
288.001,-0.005,0,1,-0.01125
288.2,-0.005,0,1,-0.01125
288.401,-0.005,0,1,-0.01125
288.6,-0.005,0,1,-0.01125
288.8,-0.005,0,1,-0.01125
288.999,-0.005,0,1,-0.01125
289.2,-0.005,0,1,-0.01125
289.4,-0.005,0,1,-0.01125
289.6,-0.005,0,1,-0.01125
289.8,-0.005,0,1,-0.01125
289.999,-0.005,0,1,-0.01125
290.199,-0.005,0,1,-0.01125
290.4,-0.005,0,1,-0.01125
290.6,-0.005,0,1,-0.01125
290.799,-0.005,0,1,-0.01125
291,-0.005,0,1,-0.01125
291.199,-0.005,0,1,-0.01125
291.401,-0.005,0,1,-0.01125
291.6,-0.005,0,1,-0.01125
291.8,-0.005,0,1,-0.01125
292,-0.005,0,1,-0.01125
292.201,-0.01,0,1,-0.01125
292.4,-0.005,0,1,-0.01125
292.6,-0.005,0,1,-0.01125
292.8,-0.005,0,1,-0.01125
293.001,-0.005,0,1,-0.01125
293.2,-0.005,0,1,-0.01125
293.401,-0.005,0,1,-0.01125
293.599,-0.005,0,1,-0.01125
293.8,-0.005,0,1,-0.01125
294,-0.005,0,1,-0.01125
294.2,-0.005,0,1,-0.01125
294.4,-0.005,0,1,-0.01125
294.599,-0.005,0,1,-0.01125
294.801,-0.01,0,1,-0.01125
295.001,-0.005,0,1,-0.01125
295.199,-0.005,0,1,-0.01125
295.4,-0.005,0,1,-0.01125
295.6,-0.005,0,1,-0.01125
295.801,-0.01,0,1,-0.01125
296,-0.01,0,1,-0.01125
296.2,-0.005,0,1,-0.01125
296.4,-0.005,0,1,-0.01125
296.6,-0.005,0,1,-0.01125
296.8,-0.005,0,1,-0.01125
296.999,-0.005,0,1,-0.01125
297.2,-0.005,0,1,-0.01125
297.4,-0.005,0,1,-0.01125
297.601,-0.01,0,1,-0.01125
297.801,-0.01,0,1,-0.01125
298.001,-0.005,0,1,-0.01125
298.199,-0.005,0,1,-0.01125
298.4,-0.005,0,1,-0.01125
298.6,-0.005,0,1,-0.01125
298.8,-0.005,0,1,-0.01125
299.001,-0.01,0,1,-0.01125
299.2,-0.005,0,1,-0.01125
299.4,-0.01,0,1,-0.01125
299.6,-0.01,0,1,-0.01125
299.801,-0.01,0,1,-0.01125
300.001,-0.01,0,1,-0.01125
300.201,-0.01,0,1,-0.01125
300.4,-0.01,0,1,-0.01125
300.599,-0.01,0,1,-0.01125
300.8,-0.01,0,1,-0.0114
301,-0.01,0,1,-0.0114
301.199,-0.005,0,1,-0.0114
301.401,-0.01,0,1,-0.0114
301.6,-0.005,0,1,-0.0114
301.799,-0.005,0,1,-0.0114
302.001,-0.01,0,1,-0.0114
302.2,-0.005,0,1,-0.0114
302.401,-0.01,0,1,-0.0114
302.6,-0.01,0,1,-0.0114
302.801,-0.01,0,1,-0.0114
303,-0.01,0,1,-0.0114
303.2,-0.005,0,1,-0.0114
303.4,-0.01,0,1,-0.0114
303.6,-0.01,0,1,-0.0114
303.8,-0.01,0,1,-0.0114
304.001,-0.01,0,1,-0.0114
304.201,-0.01,0,1,-0.0114
304.399,-0.01,0,1,-0.0114
304.599,-0.005,0,1,-0.0114
304.8,-0.01,0,1,-0.0114
305,-0.01,0,1,-0.0114
305.2,-0.01,0,1,-0.0114
305.4,-0.01,0,1,-0.0114
305.6,-0.01,0,1,-0.0114
305.799,-0.01,0,1,-0.0114
306,-0.01,0,1,-0.0114
306.199,-0.01,0,1,-0.0114
306.401,-0.01,0,1,-0.0114
306.6,-0.01,0,1,-0.0114
306.8,-0.01,0,1,-0.0114
307,-0.01,0,1,-0.0114
307.2,-0.01,0,1,-0.0114
307.4,-0.01,0,1,-0.0114
307.599,-0.01,0,1,-0.0114
307.8,-0.01,0,1,-0.0114
307.999,-0.005,0,1,-0.0114
308.2,-0.01,0,1,-0.0114
308.4,-0.01,0,1,-0.0114
308.599,-0.01,0,1,-0.0114
308.8,-0.01,0,1,-0.0114
309,-0.01,0,1,-0.0114
309.199,-0.01,0,1,-0.0114
309.401,-0.01,0,1,-0.0114
309.6,-0.01,0,1,-0.0114
309.801,-0.01,0,1,-0.0114
310,-0.01,0,1,-0.0114
310.2,-0.01,0,1,-0.0114
310.4,-0.01,0,1,-0.0114
310.6,-0.01,0,1,-0.0114
310.8,-0.01,0,1,-0.0114
311,-0.01,0,1,-0.0114
311.2,-0.01,0,1,-0.0114
311.4,-0.01,0,1,-0.0114
311.601,-0.01,0,1,-0.0114
311.8,-0.01,0,1,-0.0114
312,-0.01,0,1,-0.0114
312.2,-0.01,0,1,-0.0114
312.399,-0.01,0,1,-0.0114
312.599,-0.01,0,1,-0.0114
312.8,-0.01,0,1,-0.0114
313,-0.01,0,1,-0.0114
313.199,-0.01,0,1,-0.0114
313.4,-0.01,0,1,-0.0114
313.6,-0.01,0,1,-0.0114
313.8,-0.01,0,1,-0.0114
314,-0.01,0,1,-0.01155
314.201,-0.01,0,1,-0.01155
314.4,-0.01,0,1,-0.01155
314.6,-0.01,0,1,-0.01155
314.8,-0.01,0,1,-0.01155
315,-0.01,0,1,-0.01155
315.199,-0.01,0,1,-0.01155
315.4,-0.01,0,1,-0.01155
315.6,-0.01,0,1,-0.01155
315.8,-0.01,0,1,-0.01155
316,-0.01,0,1,-0.01155
316.2,-0.01,0,1,-0.01155
316.4,-0.01,0,1,-0.01155
316.6,-0.01,0,1,-0.01155
316.8,-0.01,0,1,-0.01155
317.001,-0.01,0,1,-0.01155
317.2,-0.01,0,1,-0.01155
317.4,-0.01,0,1,-0.01155
317.599,-0.01,0,1,-0.01155
317.8,-0.01,0,1,-0.01155
318.001,-0.01,0,1,-0.01155
318.201,-0.01,0,1,-0.01155
318.401,-0.01,0,1,-0.01155
318.6,-0.01,0,1,-0.01155
318.801,-0.01,0,1,-0.01155
319,-0.01,0,1,-0.01155
319.2,-0.01,0,1,-0.01155
319.4,-0.01,0,1,-0.01155
319.601,-0.01,0,1,-0.01155
319.8,-0.01,0,1,-0.01155
320.001,-0.01,0,1,-0.01155
320.201,-0.01,0,1,-0.01155
320.401,-0.01,0,1,-0.01155
320.6,-0.01,0,1,-0.01155
320.8,-0.01,0,1,-0.01155
321,-0.01,0,1,-0.01155
321.2,-0.01,0,1,-0.01155
321.4,-0.01,0,1,-0.01155
321.6,-0.01,0,1,-0.01155
321.801,-0.01,0,1,-0.01155
322,-0.01,0,1,-0.01155
322.201,-0.01,0,1,-0.01155
322.4,-0.01,0,1,-0.01155
322.601,-0.01,0,1,-0.01155
322.8,-0.01,0,1,-0.01155
323.001,-0.01,0,1,-0.01155
323.2,-0.01,0,1,-0.01155
323.401,-0.01,0,1,-0.01155
323.6,-0.01,0,1,-0.01155
323.801,-0.01,0,1,-0.01155
324,-0.01,0,1,-0.01155
324.201,-0.01,0,1,-0.01155
324.4,-0.01,0,1,-0.01155
324.6,-0.01,0,1,-0.01155
324.8,-0.01,0,1,-0.01155
325,-0.01,0,1,-0.01155
325.2,-0.01,0,1,-0.01155
325.4,-0.01,0,1,-0.01155
325.6,-0.01,0,1,-0.01155
325.8,-0.01,0,1,-0.01155
326.001,-0.01,0,1,-0.01155
326.2,-0.01,0,1,-0.01155
326.401,-0.01,0,1,-0.01155
326.6,-0.01,0,1,-0.01155
326.801,-0.01,0,1,-0.01155
327,-0.01,0,1,-0.01155
327.2,-0.01,0,1,-0.01155
327.4,-0.01,0,1,-0.01155
327.6,-0.01,0,1,-0.01155
327.8,-0.01,0,1,-0.01155
328,-0.01,0,1,-0.01155
328.2,-0.01,0,1,-0.01155
328.4,-0.01,0,1,-0.01155
328.6,-0.01,0,1,-0.01155
328.8,-0.01,0,1,-0.01155
329.001,-0.01,0,1,-0.01155
329.2,-0.01,0,1,-0.01155
329.401,-0.01,0,1,-0.01155
329.6,-0.01,0,1,-0.01155
329.801,-0.01,0,1,-0.01155
330,-0.01,0,1,-0.01155
330.2,-0.01,0,1,-0.01155
330.4,-0.01,0,1,-0.01155
330.6,-0.01,0,1,-0.01155
330.8,-0.01,0,1,-0.01155
331,-0.01,0,1,-0.01155
331.2,-0.01,0,1,-0.01155
331.4,-0.01,0,1,-0.01155
331.601,-0.01,0,1,-0.01155
331.8,-0.01,0,1,-0.01155
332.001,-0.01,0,1,-0.01155
332.2,-0.01,0,1,-0.01155
332.4,-0.01,0,1,-0.01155
332.6,-0.01,0,1,-0.0117
332.801,-0.01,0,1,-0.0117
333.001,-0.01,0,1,-0.0117
333.2,-0.01,0,1,-0.0117
333.4,-0.01,0,1,-0.0117
333.6,-0.01,0,1,-0.0117
333.8,-0.01,0,1,-0.0117
334.001,-0.01,0,1,-0.0117
334.2,-0.01,0,1,-0.0117
334.399,-0.005,0,1,-0.0117
334.6,-0.01,0,1,-0.0117
334.799,-0.01,0,1,-0.0117
334.999,-0.01,0,1,-0.0117
335.201,-0.01,0,1,-0.0117
335.4,-0.01,0,1,-0.0117
335.6,-0.01,0,1,-0.0117
335.8,-0.01,0,1,-0.0117
335.999,-0.005,0,1,-0.0117
336.2,-0.01,0,1,-0.0117
336.4,-0.01,0,1,-0.0117
336.599,-0.01,0,1,-0.0117
336.799,-0.005,0,1,-0.0117
337,-0.01,0,1,-0.0117
337.2,-0.01,0,1,-0.0117
337.4,-0.01,0,1,-0.0117
337.6,-0.01,0,1,-0.0117
337.801,-0.01,0,1,-0.0117
338,-0.01,0,1,-0.0117
338.2,-0.01,0,1,-0.0117
338.4,-0.01,0,1,-0.0117
338.6,-0.01,0,1,-0.0117
338.8,-0.005,0,1,-0.0117
339.001,-0.01,0,1,-0.0117
339.2,-0.01,0,1,-0.0117
339.4,-0.01,0,1,-0.0117
339.6,-0.005,0,1,-0.0117
339.8,-0.005,0,1,-0.0117
340,-0.01,0,1,-0.0117
340.2,-0.01,0,1,-0.0117
340.399,-0.01,0,1,-0.0117
340.601,-0.01,0,1,-0.0117
340.801,-0.01,0,1,-0.0117
341,-0.01,0,1,-0.0117
341.201,-0.01,0,1,-0.0117
341.399,-0.01,0,1,-0.0117
341.601,-0.01,0,1,-0.0117
341.8,-0.01,0,1,-0.0117
341.999,-0.01,0,1,-0.0117
342.2,-0.01,0,1,-0.0117
342.4,-0.005,0,1,-0.0117
342.6,-0.01,0,1,-0.0117
342.799,-0.005,0,1,-0.0117
342.999,-0.005,0,1,-0.0117
343.2,-0.01,0,1,-0.0117
343.4,-0.01,0,1,-0.0117
343.599,-0.005,0,1,-0.0117
343.8,-0.01,0,1,-0.0117
344,-0.005,0,1,-0.0117
344.2,-0.005,0,1,-0.0117
344.399,-0.005,0,1,-0.0117
344.601,-0.01,0,1,-0.0117
344.8,-0.01,0,1,-0.0117
345.001,-0.01,0,1,-0.0117
345.2,-0.005,0,1,-0.0117
345.4,-0.01,0,1,-0.0117
345.6,-0.01,0,1,-0.0117
345.8,-0.01,0,1,-0.0117
346,-0.005,0,1,-0.0117
346.2,-0.005,0,1,-0.0117
346.4,-0.01,0,1,-0.0117
346.6,-0.01,0,1,-0.0117
346.8,-0.01,0,1,-0.0117
347.001,-0.01,0,1,-0.0117
347.2,-0.005,0,1,-0.0117
347.399,-0.005,0,1,-0.01185
347.601,-0.01,0,1,-0.0117
347.8,-0.01,0,1,-0.0117
348.001,-0.01,0,1,-0.0117
348.201,-0.01,0,1,-0.0117
348.4,-0.005,0,1,-0.01185
348.6,-0.01,0,1,-0.0117
348.8,-0.005,0,1,-0.01185
349,-0.01,0,1,-0.01185
349.2,-0.005,0,1,-0.01185
349.4,-0.005,0,1,-0.01185
349.6,-0.005,0,1,-0.01185
349.8,-0.01,0,1,-0.01185
350.001,-0.005,0,1,-0.01185
350.2,-0.005,0,1,-0.01185
350.401,-0.01,0,1,-0.01185
350.6,-0.01,0,1,-0.01185
350.799,-0.005,0,1,-0.01185
351,-0.01,0,1,-0.01185
351.199,-0.01,0,1,-0.01185
351.4,-0.005,0,1,-0.01185
351.601,-0.01,0,1,-0.01185
351.8,-0.01,0,1,-0.01185
352,-0.005,0,1,-0.01185
352.199,-0.01,0,1,-0.01185
352.401,-0.01,0,1,-0.01185
352.6,-0.01,0,1,-0.01185
352.8,-0.01,0,1,-0.01185
353,-0.005,0,1,-0.01185
353.201,-0.01,0,1,-0.01185
353.399,-0.01,0,1,-0.01185
353.6,-0.01,0,1,-0.01185
353.8,-0.005,0,1,-0.01185
354,-0.005,0,1,-0.01185
354.2,-0.01,0,1,-0.01185
354.4,-0.01,0,1,-0.01185
354.6,-0.01,0,1,-0.01185
354.8,-0.005,0,1,-0.01185
355,-0.01,0,1,-0.01185
355.201,-0.01,0,1,-0.01185
355.4,-0.01,0,1,-0.01185
355.6,-0.005,0,1,-0.01185
355.8,-0.005,0,1,-0.01185
356,-0.01,0,1,-0.01185
356.2,-0.005,0,1,-0.01185
356.4,-0.01,0,1,-0.01185
356.6,-0.01,0,1,-0.01185
356.8,-0.01,0,1,-0.01185
357.001,-0.005,0,1,-0.01185
357.2,-0.01,0,1,-0.01185
357.401,-0.01,0,1,-0.01185
357.6,-0.005,0,1,-0.01185
357.799,-0.005,0,1,-0.01185
357.999,-0.005,0,1,-0.01185
358.2,-0.005,0,1,-0.01185
358.399,-0.005,0,1,-0.01185
358.6,-0.005,0,1,-0.01185
358.799,-0.005,0,1,-0.01185
358.999,-0.005,0,1,-0.01185
359.2,-0.005,0,1,-0.01185
359.401,-0.005,0,1,-0.01185
359.601,-0.01,0,1,-0.01185
359.801,-0.01,0,1,-0.01185
359.999,-0.005,0,1,-0.01185
360.2,-0.005,0,1,-0.01185
360.399,-0.005,0,1,-0.01185
360.6,-0.005,0,1,-0.01185
360.799,-0.005,0,1,-0.01185
361.001,-0.005,0,1,-0.01185
361.199,-0.005,0,1,-0.01185
361.4,-0.005,0,1,-0.01185
361.599,-0.005,0,1,-0.01185
361.8,-0.005,0,1,-0.01185
362,-0.01,0,1,-0.01185
362.2,-0.005,0,1,-0.01185
362.4,-0.01,0,1,-0.01185
362.6,-0.005,0,1,-0.01185
362.8,-0.005,0,1,-0.01185
362.999,-0.005,0,1,-0.01185
363.201,-0.01,0,1,-0.01185
363.4,-0.01,0,1,-0.01185
363.6,-0.005,0,1,-0.01185
363.799,-0.005,0,1,-0.01185
364,-0.005,0,1,-0.01185
364.2,-0.005,0,1,-0.01185
364.401,-0.01,0,1,-0.01185
364.6,-0.005,0,1,-0.01185
364.801,-0.005,0,1,-0.01185
365,-0.005,0,1,-0.01185
365.2,-0.005,0,1,-0.01185
365.4,-0.005,0,1,-0.01185
365.6,-0.005,0,1,-0.01185
365.8,-0.005,0,1,-0.01185
366.001,-0.005,0,1,-0.01185
366.2,-0.005,0,1,-0.01185
366.4,-0.005,0,1,-0.01185
366.6,-0.005,0,1,-0.01185
366.8,-0.005,0,1,-0.01185
367.001,-0.005,0,1,-0.01185
367.2,-0.005,0,1,-0.01185
367.4,-0.005,0,1,-0.01185
367.6,-0.005,0,1,-0.01185
367.8,-0.005,0,1,-0.01185
368,-0.005,0,1,-0.01185
368.2,-0.005,0,1,-0.01185
368.401,-0.005,0,1,-0.01185
368.6,-0.005,0,1,-0.01185
368.8,-0.005,0,1,-0.01185
369,-0.005,0,1,-0.01185
369.199,-0.005,0,1,-0.01185
369.4,-0.005,0,1,-0.01185
369.6,-0.005,0,1,-0.01185
369.799,-0.005,0,1,-0.01185
370,-0.005,0,1,-0.01185
370.201,-0.005,0,1,-0.01185
370.4,-0.005,0,1,-0.01185
370.6,-0.005,0,1,-0.01185
370.8,-0.005,0,1,-0.01185
371,-0.005,0,1,-0.01185
371.2,-0.005,0,1,-0.01185
371.401,-0.005,0,1,-0.01185
371.6,-0.005,0,1,-0.01185
371.8,-0.005,0,1,-0.01185
371.999,-0.005,0,1,-0.01185
372.2,-0.005,0,1,-0.01185
372.4,-0.005,0,1,-0.01185
372.601,-0.005,0,1,-0.01185
372.801,-0.005,0,1,-0.01185
373,-0.005,0,1,-0.01185
373.2,-0.005,0,1,-0.01185
373.4,-0.005,0,1,-0.01185
373.601,-0.005,0,1,-0.01185
373.8,-0.005,0,1,-0.01185
373.999,-0.005,0,1,-0.01185
374.2,-0.005,0,1,-0.012
374.4,-0.005,0,1,-0.012
374.6,-0.005,0,1,-0.012
374.8,-0.005,0,1,-0.01185
374.999,-0.005,0,1,-0.012
375.2,-0.005,0,1,-0.012
375.4,-0.005,0,1,-0.012
375.6,-0.005,0,1,-0.012
375.8,-0.005,0,1,-0.012
375.999,-0.005,0,1,-0.012
376.199,-0.005,0,1,-0.012
376.4,-0.005,0,1,-0.01185
376.6,-0.005,0,1,-0.012
376.801,-0.01,0,1,-0.012
377.001,-0.01,0,1,-0.012
377.201,-0.005,0,1,-0.012
377.401,-0.005,0,1,-0.012
377.6,-0.005,0,1,-0.012
377.8,-0.005,0,1,-0.012
378,-0.01,0,1,-0.012
378.201,-0.005,0,1,-0.012
378.4,-0.005,0,1,-0.012
378.601,-0.005,0,1,-0.012
378.801,-0.005,0,1,-0.012
379,-0.005,0,1,-0.012
379.202,-0.005,0,1,-0.012
379.4,-0.005,0,1,-0.012
379.6,-0.005,0,1,-0.012
379.8,-0.005,0,1,-0.012
380,-0.005,0,1,-0.012
380.201,-0.005,0,1,-0.012
380.4,-0.005,0,1,-0.012
380.6,-0.005,0,1,-0.012
380.8,-0.005,0,1,-0.012
381.001,-0.005,0,1,-0.012
381.2,-0.005,0,1,-0.012
381.399,-0.005,0,1,-0.012
381.599,-0.005,0,1,-0.012
381.8,-0.005,0,1,-0.012
382,-0.005,0,1,-0.012
382.2,-0.005,0,1,-0.012
382.401,-0.01,0,1,-0.012
382.6,-0.005,0,1,-0.012
382.801,-0.01,0,1,-0.012
383,-0.005,0,1,-0.012
383.201,-0.005,0,1,-0.012
383.399,-0.005,0,1,-0.012
383.6,-0.005,0,1,-0.012
383.8,-0.01,0,1,-0.012
384,-0.005,0,1,-0.012
384.2,-0.005,0,1,-0.012
384.4,-0.01,0,1,-0.012
384.6,-0.005,0,1,-0.012
384.801,-0.01,0,1,-0.012
385,-0.01,0,1,-0.012
385.2,-0.01,0,1,-0.012
385.399,-0.005,0,1,-0.012
385.6,-0.01,0,1,-0.012
385.8,-0.005,0,1,-0.012
386,-0.01,0,1,-0.012
386.201,-0.01,0,1,-0.012
386.4,-0.005,0,1,-0.012
386.6,-0.01,0,1,-0.012
386.801,-0.005,0,1,-0.012
387,-0.01,0,1,-0.012
387.2,-0.005,0,1,-0.012
387.4,-0.005,0,1,-0.012
387.6,-0.005,0,1,-0.012
387.799,-0.005,0,1,-0.012
387.999,-0.005,0,1,-0.012
388.199,-0.01,0,1,-0.012
388.4,-0.005,0,1,-0.012
388.599,-0.005,0,1,-0.012
388.799,-0.005,0,1,-0.012
388.999,-0.005,0,1,-0.012
389.2,-0.01,0,1,-0.012
389.4,-0.01,0,1,-0.012
389.6,-0.005,0,1,-0.012
389.8,-0.005,0,1,-0.012
390.001,-0.01,0,1,-0.012
390.2,-0.01,0,1,-0.012
390.4,-0.005,0,1,-0.012
390.6,-0.005,0,1,-0.012
390.8,-0.01,0,1,-0.012
391,-0.01,0,1,-0.012
391.2,-0.01,0,1,-0.012
391.4,-0.005,0,1,-0.012
391.6,-0.01,0,1,-0.012
391.8,-0.01,0,1,-0.012
392,-0.01,0,1,-0.012
392.2,-0.01,0,1,-0.012
392.4,-0.01,0,1,-0.012
392.6,-0.01,0,1,-0.012
392.8,-0.005,0,1,-0.012
393,-0.005,0,1,-0.012
393.2,-0.01,0,1,-0.012
393.4,-0.01,0,1,-0.012
393.601,-0.01,0,1,-0.012
393.8,-0.01,0,1,-0.012
394,-0.01,0,1,-0.012
394.199,-0.005,0,1,-0.012
394.4,-0.005,0,1,-0.012
394.6,-0.005,0,1,-0.012
394.8,-0.01,0,1,-0.012
395,-0.01,0,1,-0.012
395.2,-0.01,0,1,-0.012
395.4,-0.01,0,1,-0.012
395.599,-0.005,0,1,-0.012
395.8,-0.01,0,1,-0.012
396,-0.01,0,1,-0.012
396.2,-0.01,0,1,-0.012
396.4,-0.01,0,1,-0.012
396.601,-0.01,0,1,-0.012
396.799,-0.005,0,1,-0.012
397,-0.01,0,1,-0.012
397.2,-0.01,0,1,-0.012
397.401,-0.01,0,1,-0.012
397.6,-0.01,0,1,-0.012
397.8,-0.01,0,1,-0.012
398.001,-0.01,0,1,-0.012
398.2,-0.01,0,1,-0.012
398.4,-0.01,0,1,-0.012
398.6,-0.01,0,1,-0.012
398.801,-0.01,0,1,-0.012
399,-0.01,0,1,-0.012
399.2,-0.01,0,1,-0.012
399.401,-0.01,0,1,-0.012
399.6,-0.01,0,1,-0.012
399.8,-0.01,0,1,-0.012
400,-0.01,0,1,-0.012
400.2,-0.01,0,1,-0.012
400.4,-0.01,0,1,-0.012
400.6,-0.01,0,1,-0.012
400.8,-0.01,0,1,-0.012
401.001,-0.01,0,1,-0.012
401.2,-0.01,0,1,-0.012
401.4,-0.01,0,1,-0.012
401.601,-0.01,0,1,-0.012
401.8,-0.01,0,1,-0.012
402.001,-0.01,0,1,-0.012
402.2,-0.01,0,1,-0.012
402.401,-0.01,0,1,-0.012
402.6,-0.01,0,1,-0.012
402.8,-0.01,0,1,-0.012
403,-0.01,0,1,-0.012
403.2,-0.01,0,1,-0.012
403.4,-0.01,0,1,-0.012
403.6,-0.01,0,1,-0.012
403.8,-0.01,0,1,-0.012
404,-0.01,0,1,-0.012
404.2,-0.01,0,1,-0.01215
404.4,-0.01,0,1,-0.012
404.6,-0.01,0,1,-0.01215
404.8,-0.01,0,1,-0.01215
405.001,-0.01,0,1,-0.01215
405.201,-0.01,0,1,-0.012
405.401,-0.01,0,1,-0.012
405.6,-0.01,0,1,-0.012
405.8,-0.01,0,1,-0.012
406,-0.01,0,1,-0.012
406.2,-0.01,0,1,-0.012
406.399,-0.01,0,1,-0.01215
406.601,-0.01,0,1,-0.01215
406.8,-0.01,0,1,-0.01215
407,-0.01,0,1,-0.01215
407.201,-0.01,0,1,-0.01215
407.401,-0.01,0,1,-0.01215
407.6,-0.01,0,1,-0.01215
407.8,-0.01,0,1,-0.01215
407.999,-0.01,0,1,-0.01215
408.201,-0.01,0,1,-0.01215
408.399,-0.01,0,1,-0.01215
408.6,-0.01,0,1,-0.01215
408.801,-0.01,0,1,-0.01215
409,-0.01,0,1,-0.01215
409.199,-0.01,0,1,-0.01215
409.4,-0.01,0,1,-0.01215
409.6,-0.01,0,1,-0.01215
409.8,-0.01,0,1,-0.01215
410.001,-0.01,0,1,-0.01215
410.199,-0.01,0,1,-0.01215
410.4,-0.01,0,1,-0.01215
410.6,-0.01,0,1,-0.01215
410.8,-0.01,0,1,-0.01215
411,-0.01,0,1,-0.01215
411.2,-0.01,0,1,-0.01215
411.401,-0.01,0,1,-0.01215
411.601,-0.01,0,1,-0.01215
411.8,-0.01,0,1,-0.01215
412.001,-0.01,0,1,-0.01215
412.2,-0.01,0,1,-0.01215
412.4,-0.01,0,1,-0.01215
412.6,-0.01,0,1,-0.01215
412.801,-0.01,0,1,-0.01215
413,-0.01,0,1,-0.01215
413.2,-0.01,0,1,-0.01215
413.4,-0.01,0,1,-0.01215
413.601,-0.01,0,1,-0.01215
413.8,-0.01,0,1,-0.01215
414,-0.01,0,1,-0.01215
414.2,-0.01,0,1,-0.01215
414.4,-0.01,0,1,-0.01215
414.6,-0.01,0,1,-0.01215
414.8,-0.01,0,1,-0.01215
415,-0.01,0,1,-0.01215
415.2,-0.01,0,1,-0.01215
415.4,-0.01,0,1,-0.01215
415.6,-0.01,0,1,-0.01215
415.8,-0.01,0,1,-0.01215
416,-0.01,0,1,-0.01215
416.201,-0.01,0,1,-0.01215
416.4,-0.01,0,1,-0.01215
416.601,-0.01,0,1,-0.01215
416.8,-0.01,0,1,-0.01215
417,-0.01,0,1,-0.01215
417.201,-0.01,0,1,-0.01215
417.401,-0.01,0,1,-0.01215
417.6,-0.01,0,1,-0.01215
417.8,-0.01,0,1,-0.01215
418,-0.01,0,1,-0.01215
418.201,-0.01,0,1,-0.01215
418.401,-0.01,0,1,-0.01215
418.599,-0.01,0,1,-0.01215
418.8,-0.01,0,1,-0.01215
419,-0.01,0,1,-0.01215
419.2,-0.01,0,1,-0.01215
419.399,-0.01,0,1,-0.01215
419.6,-0.01,0,1,-0.01215
419.8,-0.01,0,1,-0.01215
419.999,-0.01,0,1,-0.01215
420.2,-0.01,0,1,-0.01215
420.4,-0.01,0,1,-0.01215
420.6,-0.01,0,1,-0.01215
420.8,-0.01,0,1,-0.01215
421.001,-0.01,0,1,-0.01215
421.199,-0.01,0,1,-0.01215
421.4,-0.01,0,1,-0.01215
421.6,-0.01,0,1,-0.01215
421.8,-0.01,0,1,-0.01215
422,-0.01,0,1,-0.01215
422.2,-0.01,0,1,-0.01215
422.401,-0.01,0,1,-0.01215
422.6,-0.01,0,1,-0.01215
422.8,-0.01,0,1,-0.01215
423,-0.01,0,1,-0.01215
423.199,-0.01,0,1,-0.01215
423.4,-0.01,0,1,-0.01215
423.6,-0.01,0,1,-0.01215
423.8,-0.01,0,1,-0.01215
424,-0.01,0,1,-0.01215
424.2,-0.005,0,1,-0.01215
424.4,-0.01,0,1,-0.01215
424.6,-0.01,0,1,-0.01215
424.8,-0.01,0,1,-0.01215
425,-0.01,0,1,-0.01215
425.2,-0.01,0,1,-0.01215
425.401,-0.01,0,1,-0.01215
425.6,-0.01,0,1,-0.01215
425.8,-0.01,0,1,-0.01215
426,-0.01,0,1,-0.01215
426.199,-0.01,0,1,-0.01215
426.399,-0.01,0,1,-0.01215
426.599,-0.01,0,1,-0.01215
426.8,-0.01,0,1,-0.01215
426.999,-0.01,0,1,-0.01215
427.2,-0.01,0,1,-0.01215
427.4,-0.01,0,1,-0.01215
427.6,-0.01,0,1,-0.01215
427.8,-0.01,0,1,-0.01215
428,-0.01,0,1,-0.01215
428.2,-0.01,0,1,-0.01215
428.4,-0.01,0,1,-0.01215
428.599,-0.01,0,1,-0.01215
428.8,-0.01,0,1,-0.01215
429,-0.01,0,1,-0.01215
429.2,-0.01,0,1,-0.01215
429.4,-0.01,0,1,-0.01215
429.6,-0.01,0,1,-0.01215
429.8,-0.01,0,1,-0.01215
430,-0.01,0,1,-0.01215
430.2,-0.01,0,1,-0.01215
430.4,-0.01,0,1,-0.01215
430.6,-0.01,0,1,-0.01215
430.8,-0.01,0,1,-0.01215
431,-0.01,0,1,-0.01215
431.2,-0.01,0,1,-0.01215
431.4,-0.01,0,1,-0.01215
431.6,-0.01,0,1,-0.01215
431.8,-0.01,0,1,-0.01215
432,-0.01,0,1,-0.01215
432.2,-0.01,0,1,-0.01215
432.4,-0.01,0,1,-0.01215
432.6,-0.01,0,1,-0.01215
432.799,-0.01,0,1,-0.01215
433,-0.01,0,1,-0.01215
433.2,-0.01,0,1,-0.01215
433.401,-0.01,0,1,-0.01215
433.6,-0.01,0,1,-0.01215
433.8,-0.01,0,1,-0.01215
434,-0.01,0,1,-0.01215
434.2,-0.01,0,1,-0.01215
434.4,-0.01,0,1,-0.01215
434.6,-0.01,0,1,-0.01215
434.8,-0.01,0,1,-0.01215
435,-0.01,0,1,-0.01215
435.2,-0.01,0,1,-0.01215
435.4,-0.01,0,1,-0.01215
435.6,-0.01,0,1,-0.01215
435.801,-0.01,0,1,-0.01215
436.001,-0.005,0,1,-0.01215
436.2,-0.01,0,1,-0.01215
436.4,-0.01,0,1,-0.01215
436.6,-0.01,0,1,-0.01215
436.801,-0.005,0,1,-0.01215
437,-0.01,0,1,-0.01215
437.2,-0.01,0,1,-0.01215
437.4,-0.005,0,1,-0.0123
437.6,-0.01,0,1,-0.01215
437.8,-0.01,0,1,-0.0123
438,-0.01,0,1,-0.0123
438.201,-0.01,0,1,-0.0123
438.4,-0.005,0,1,-0.0123
438.6,-0.01,0,1,-0.0123
438.801,-0.005,0,1,-0.0123
439,-0.01,0,1,-0.0123
439.2,-0.005,0,1,-0.0123
439.4,-0.005,0,1,-0.0123
439.599,-0.01,0,1,-0.0123
439.8,-0.01,0,1,-0.0123
440,-0.01,0,1,-0.0123
440.2,-0.005,0,1,-0.0123
440.401,-0.01,0,1,-0.0123
440.6,-0.005,0,1,-0.0123
440.8,-0.005,0,1,-0.0123
441,-0.005,0,1,-0.0123
441.2,-0.01,0,1,-0.0123
441.401,-0.01,0,1,-0.0123
441.6,-0.01,0,1,-0.0123
441.801,-0.005,0,1,-0.0123
441.999,-0.01,0,1,-0.0123
442.2,-0.005,0,1,-0.0123
442.4,-0.01,0,1,-0.0123
442.6,-0.01,0,1,-0.0123
442.799,-0.005,0,1,-0.0123
443.001,-0.005,0,1,-0.0123
443.2,-0.005,0,1,-0.0123
443.401,-0.005,0,1,-0.0123
443.6,-0.01,0,1,-0.0123
443.8,-0.005,0,1,-0.0123
444,-0.005,0,1,-0.0123
444.2,-0.005,0,1,-0.0123
444.4,-0.005,0,1,-0.0123
444.6,-0.005,0,1,-0.0123
444.8,-0.005,0,1,-0.0123
445.001,-0.005,0,1,-0.0123
445.2,-0.005,0,1,-0.0123
445.4,-0.01,0,1,-0.0123
445.599,-0.005,0,1,-0.0123
445.799,-0.005,0,1,-0.0123
446,-0.005,0,1,-0.0123
446.2,-0.005,0,1,-0.0123
446.399,-0.01,0,1,-0.0123
446.6,-0.005,0,1,-0.0123
446.801,-0.01,0,1,-0.0123
447,-0.005,0,1,-0.0123
447.2,-0.005,0,1,-0.0123
447.399,-0.005,0,1,-0.0123
447.6,-0.005,0,1,-0.0123
447.8,-0.005,0,1,-0.0123
448,-0.005,0,1,-0.0123
448.201,-0.005,0,1,-0.0123
448.4,-0.005,0,1,-0.0123
448.6,-0.005,0,1,-0.0123
448.8,-0.005,0,1,-0.0123
449.001,-0.01,0,1,-0.0123
449.201,-0.005,0,1,-0.0123
449.4,-0.005,0,1,-0.0123
449.6,-0.01,0,1,-0.0123
449.8,-0.005,0,1,-0.0123
450.001,-0.005,0,1,-0.0123
450.199,-0.005,0,1,-0.0123
450.4,-0.005,0,1,-0.0123
450.599,-0.005,0,1,-0.0123
450.801,-0.005,0,1,-0.0123
451.001,-0.005,0,1,-0.0123
451.201,-0.005,0,1,-0.0123
451.401,-0.005,0,1,-0.0123
451.6,-0.005,0,1,-0.0123
451.8,-0.01,0,1,-0.0123
452,-0.005,0,1,-0.0123
452.2,-0.005,0,1,-0.0123
452.4,-0.005,0,1,-0.0123
452.601,-0.005,0,1,-0.0123
452.8,-0.01,0,1,-0.0123
453.001,-0.005,0,1,-0.0123
453.199,-0.005,0,1,-0.0123
453.4,-0.01,0,1,-0.0123
453.599,-0.005,0,1,-0.0123
453.8,-0.01,0,1,-0.0123
454,-0.005,0,1,-0.0123
454.2,-0.01,0,1,-0.0123
454.4,-0.005,0,1,-0.0123
454.6,-0.005,0,1,-0.0123
454.8,-0.005,0,1,-0.0123
454.999,-0.005,0,1,-0.0123
455.201,-0.005,0,1,-0.0123
455.4,-0.005,0,1,-0.0123
455.601,-0.005,0,1,-0.0123
455.8,-0.005,0,1,-0.0123
455.999,-0.005,0,1,-0.0123
456.2,-0.005,0,1,-0.0123
456.4,-0.005,0,1,-0.0123
456.6,-0.005,0,1,-0.0123
456.8,-0.005,0,1,-0.0123
457,-0.005,0,1,-0.0123
457.2,-0.005,0,1,-0.0123
457.4,-0.005,0,1,-0.0123
457.601,-0.005,0,1,-0.0123
457.8,-0.005,0,1,-0.0123
457.999,-0.005,0,1,-0.0123
458.2,-0.005,0,1,-0.0123
458.4,-0.005,0,1,-0.0123
458.6,-0.005,0,1,-0.0123
458.8,-0.005,0,1,-0.0123
459.001,-0.005,0,1,-0.0123
459.2,-0.005,0,1,-0.0123
459.4,-0.01,0,1,-0.0123
459.599,-0.005,0,1,-0.0123
459.8,-0.005,0,1,-0.0123
460,-0.005,0,1,-0.0123
460.2,-0.005,0,1,-0.0123
460.4,-0.005,0,1,-0.0123
460.6,-0.005,0,1,-0.0123
460.8,-0.005,0,1,-0.0123
461,-0.005,0,1,-0.0123
461.199,-0.005,0,1,-0.0123
461.4,-0.005,0,1,-0.0123
461.6,-0.005,0,1,-0.0123
461.801,-0.005,0,1,-0.0123
462,-0.005,0,1,-0.0123
462.2,-0.005,0,1,-0.0123
462.401,-0.005,0,1,-0.0123
462.6,-0.005,0,1,-0.0123
462.8,-0.005,0,1,-0.0123
463,-0.005,0,1,-0.0123
463.2,-0.005,0,1,-0.0123
463.399,-0.005,0,1,-0.0123
463.6,-0.005,0,1,-0.0123
463.801,-0.005,0,1,-0.0123
464,-0.005,0,1,-0.0123
464.201,-0.005,0,1,-0.0123
464.399,-0.005,0,1,-0.0123
464.6,-0.005,0,1,-0.0123
464.8,-0.005,0,1,-0.0123
465,-0.005,0,1,-0.0123
465.2,-0.005,0,1,-0.0123
465.4,-0.005,0,1,-0.0123
465.6,-0.005,0,1,-0.0123
465.8,-0.005,0,1,-0.0123
466,-0.005,0,1,-0.0123
466.201,-0.005,0,1,-0.0123
466.4,-0.005,0,1,-0.0123
466.6,-0.005,0,1,-0.0123
466.8,-0.005,0,1,-0.0123
467,-0.005,0,1,-0.0123
467.2,-0.005,0,1,-0.0123
467.399,-0.005,0,1,-0.0123
467.6,-0.005,0,1,-0.0123
467.799,-0.005,0,1,-0.0123
467.999,-0.005,0,1,-0.0123
468.2,-0.005,0,1,-0.0123
468.4,-0.005,0,1,-0.0123
468.6,-0.005,0,1,-0.0123
468.799,-0.005,0,1,-0.0123
469.001,-0.005,0,1,-0.0123
469.2,-0.005,0,1,-0.0123
469.4,-0.005,0,1,-0.0123
469.6,-0.005,0,1,-0.0123
469.8,-0.005,0,1,-0.0123
470,-0.005,0,1,-0.0123
470.2,-0.005,0,1,-0.0123
470.4,-0.005,0,1,-0.0123
470.599,-0.005,0,1,-0.0123
470.8,-0.005,0,1,-0.0123
471,-0.005,0,1,-0.0123
471.199,-0.005,0,1,-0.0123
471.401,-0.005,0,1,-0.0123
471.6,-0.005,0,1,-0.0123
471.8,-0.005,0,1,-0.0123
472,-0.01,0,1,-0.0123
472.199,-0.005,0,1,-0.0123
472.4,-0.005,0,1,-0.0123
472.599,-0.005,0,1,-0.0123
472.8,-0.005,0,1,-0.0123
473,-0.005,0,1,-0.0123
473.201,-0.005,0,1,-0.0123
473.4,-0.005,0,1,-0.0123
473.6,-0.01,0,1,-0.0123
473.8,-0.01,0,1,-0.0123
474,-0.005,0,1,-0.0123
474.2,-0.01,0,1,-0.0123
474.4,-0.005,0,1,-0.0123
474.601,-0.005,0,1,-0.0123
474.8,-0.01,0,1,-0.0123
475,-0.01,0,1,-0.0123
475.199,-0.005,0,1,-0.0123
475.4,-0.01,0,1,-0.0123
475.6,-0.005,0,1,-0.0123
475.8,-0.005,0,1,-0.0123
476,-0.005,0,1,-0.0123
476.2,-0.01,0,1,-0.0123
476.4,-0.005,0,1,-0.0123
476.6,-0.01,0,1,-0.0123
476.8,-0.005,0,1,-0.0123
477,-0.005,0,1,-0.0123
477.2,-0.01,0,1,-0.0123
477.4,-0.005,0,1,-0.0123
477.6,-0.01,0,1,-0.0123
477.801,-0.01,0,1,-0.0123
478.001,-0.01,0,1,-0.0123
478.2,-0.005,0,1,-0.0123
478.4,-0.01,0,1,-0.0123
478.601,-0.01,0,1,-0.0123
478.801,-0.01,0,1,-0.0123
479,-0.01,0,1,-0.0123
479.199,-0.005,0,1,-0.0123
479.4,-0.01,0,1,-0.0123
479.599,-0.005,0,1,-0.0123
479.8,-0.005,0,1,-0.0123
480,-0.01,0,1,-0.0123
480.2,-0.01,0,1,-0.0123
480.4,-0.005,0,1,-0.0123
480.6,-0.005,0,1,-0.0123
480.801,-0.01,0,1,-0.0123
481,-0.01,0,1,-0.0123
481.2,-0.01,0,1,-0.0123
481.4,-0.01,0,1,-0.0123
481.6,-0.01,0,1,-0.0123
481.799,-0.01,0,1,-0.0123
482,-0.01,0,1,-0.0123
482.201,-0.01,0,1,-0.0123
482.4,-0.01,0,1,-0.0123
482.6,-0.01,0,1,-0.0123
482.8,-0.01,0,1,-0.0123
483,-0.01,0,1,-0.0123
483.2,-0.01,0,1,-0.0123
483.4,-0.01,0,1,-0.0123
483.6,-0.01,0,1,-0.01245
483.8,-0.01,0,1,-0.0123
484.001,-0.01,0,1,-0.0123
484.2,-0.01,0,1,-0.0123
484.401,-0.01,0,1,-0.0123
484.599,-0.01,0,1,-0.01245
484.8,-0.01,0,1,-0.01245
485,-0.01,0,1,-0.0123
485.201,-0.01,0,1,-0.01245
485.4,-0.01,0,1,-0.01245
485.6,-0.01,0,1,-0.01245
485.8,-0.01,0,1,-0.01245
486.001,-0.01,0,1,-0.01245
486.2,-0.01,0,1,-0.01245
486.401,-0.01,0,1,-0.01245
486.599,-0.01,0,1,-0.01245
486.799,-0.01,0,1,-0.01245
487,-0.01,0,1,-0.0123
487.2,-0.01,0,1,-0.0123
487.4,-0.01,0,1,-0.0123
487.601,-0.01,0,1,-0.0123
487.8,-0.01,0,1,-0.0123
488,-0.01,0,1,-0.0123
488.201,-0.01,0,1,-0.0123
488.4,-0.01,0,1,-0.0123
488.601,-0.01,0,1,-0.0123
488.801,-0.01,0,1,-0.0123
489,-0.01,0,1,-0.0123
489.2,-0.01,0,1,-0.0123
489.4,-0.01,0,1,-0.0123
489.6,-0.01,0,1,-0.0123
489.8,-0.01,0,1,-0.0123
490,-0.01,0,1,-0.0123
490.2,-0.01,0,1,-0.0123
490.4,-0.01,0,1,-0.01245
490.599,-0.01,0,1,-0.0123
490.8,-0.01,0,1,-0.0123
491,-0.01,0,1,-0.0123
491.201,-0.01,0,1,-0.0123
491.4,-0.01,0,1,-0.0123
491.6,-0.01,0,1,-0.0123
491.8,-0.01,0,1,-0.01245
492,-0.01,0,1,-0.01245
492.2,-0.01,0,1,-0.01245
492.4,-0.01,0,1,-0.01245
492.6,-0.01,0,1,-0.01245
492.801,-0.01,0,1,-0.01245
493,-0.01,0,1,-0.01245
493.199,-0.01,0,1,-0.01245
493.4,-0.01,0,1,-0.01245
493.599,-0.01,0,1,-0.01245
493.8,-0.01,0,1,-0.01245
494,-0.01,0,1,-0.01245
494.2,-0.01,0,1,-0.01245
494.401,-0.01,0,1,-0.01245
494.6,-0.01,0,1,-0.01245
494.8,-0.01,0,1,-0.01245
495,-0.01,0,1,-0.01245
495.199,-0.01,0,1,-0.01245
495.401,-0.01,0,1,-0.01245
495.6,-0.01,0,1,-0.01245
495.8,-0.01,0,1,-0.01245
495.999,-0.01,0,1,-0.01245
496.2,-0.01,0,1,-0.01245
496.4,-0.01,0,1,-0.01245
496.6,-0.01,0,1,-0.01245
496.799,-0.01,0,1,-0.01245
497,-0.01,0,1,-0.01245
497.199,-0.01,0,1,-0.01245
497.399,-0.01,0,1,-0.01245
497.6,-0.01,0,1,-0.01245
497.8,-0.01,0,1,-0.01245
498.001,-0.01,0,1,-0.01245
498.2,-0.01,0,1,-0.01245
498.4,-0.01,0,1,-0.01245
498.6,-0.01,0,1,-0.01245
498.8,-0.01,0,1,-0.01245
499,-0.01,0,1,-0.01245
499.2,-0.01,0,1,-0.01245
499.399,-0.01,0,1,-0.01245
499.6,-0.01,0,1,-0.01245
499.799,-0.01,0,1,-0.01245
500,-0.01,0,1,-0.01245
500.201,-0.01,0,1,-0.01245
500.401,-0.01,0,1,-0.01245
500.6,-0.01,0,1,-0.01245
500.8,-0.01,0,1,-0.01245
501.001,-0.01,0,1,-0.01245
501.2,-0.01,0,1,-0.01245
501.4,-0.01,0,1,-0.01245
501.6,-0.01,0,1,-0.01245
501.8,-0.01,0,1,-0.01245
502,-0.01,0,1,-0.01245
502.201,-0.01,0,1,-0.01245
502.399,-0.01,0,1,-0.01245
502.6,-0.01,0,1,-0.01245
502.8,-0.01,0,1,-0.01245
503,-0.01,0,1,-0.01245
503.199,-0.01,0,1,-0.01245
503.4,-0.01,0,1,-0.01245
503.599,-0.01,0,1,-0.01245
503.8,-0.01,0,1,-0.01245
504.001,-0.01,0,1,-0.01245
504.199,-0.01,0,1,-0.01245
504.4,-0.01,0,1,-0.01245
504.601,-0.01,0,1,-0.01245
504.801,-0.01,0,1,-0.01245
505.001,-0.01,0,1,-0.01245
505.2,-0.01,0,1,-0.01245
505.401,-0.01,0,1,-0.01245
505.6,-0.01,0,1,-0.01245
505.8,-0.01,0,1,-0.01245
506,-0.01,0,1,-0.01245
506.2,-0.01,0,1,-0.01245
506.4,-0.01,0,1,-0.01245
506.6,-0.01,0,1,-0.01245
506.8,-0.01,0,1,-0.01245
507.001,-0.01,0,1,-0.01245
507.2,-0.01,0,1,-0.01245
507.4,-0.01,0,1,-0.01245
507.6,-0.01,0,1,-0.01245
507.8,-0.01,0,1,-0.01245
508,-0.01,0,1,-0.01245
508.199,-0.01,0,1,-0.01245
508.4,-0.005,0,1,-0.01245
508.599,-0.01,0,1,-0.01245
508.8,-0.01,0,1,-0.01245
509,-0.01,0,1,-0.01245
509.2,-0.01,0,1,-0.01245
509.4,-0.01,0,1,-0.01245
509.599,-0.01,0,1,-0.01245
509.799,-0.01,0,1,-0.01245
510,-0.01,0,1,-0.01245
510.2,-0.01,0,1,-0.01245
510.4,-0.01,0,1,-0.01245
510.601,-0.01,0,1,-0.01245
510.8,-0.01,0,1,-0.01245
510.999,-0.01,0,1,-0.01245
511.2,-0.01,0,1,-0.01245
511.4,-0.01,0,1,-0.01245
511.6,-0.01,0,1,-0.01245
511.8,-0.01,0,1,-0.01245
512,-0.01,0,1,-0.01245
512.199,-0.01,0,1,-0.01245
512.4,-0.01,0,1,-0.01245
512.6,-0.01,0,1,-0.01245
512.8,-0.01,0,1,-0.01245
513,-0.005,0,1,-0.01245
513.2,-0.005,0,1,-0.01245
513.4,-0.01,0,1,-0.01245
513.6,-0.01,0,1,-0.01245
513.8,-0.01,0,1,-0.01245
514,-0.01,0,1,-0.01245
514.201,-0.01,0,1,-0.01245
514.4,-0.01,0,1,-0.01245
514.6,-0.005,0,1,-0.01245
514.8,-0.01,0,1,-0.01245
514.999,-0.01,0,1,-0.01245
515.2,-0.01,0,1,-0.01245
515.4,-0.005,0,1,-0.01245
515.6,-0.005,0,1,-0.01245
515.8,-0.01,0,1,-0.01245
516,-0.005,0,1,-0.01245
516.2,-0.01,0,1,-0.01245
516.4,-0.005,0,1,-0.01245
516.6,-0.01,0,1,-0.01245
516.8,-0.005,0,1,-0.01245
517,-0.005,0,1,-0.01245
517.201,-0.005,0,1,-0.01245
517.4,-0.01,0,1,-0.01245
517.6,-0.01,0,1,-0.01245
517.8,-0.005,0,1,-0.01245
518.001,-0.005,0,1,-0.01245
518.2,-0.005,0,1,-0.01245
518.401,-0.005,0,1,-0.01245
518.6,-0.005,0,1,-0.01245
518.8,-0.005,0,1,-0.01245
519,-0.005,0,1,-0.01245
519.199,-0.005,0,1,-0.01245
519.401,-0.005,0,1,-0.01245
519.601,-0.005,0,1,-0.01245
519.8,-0.005,0,1,-0.01245
520.001,-0.005,0,1,-0.01245
520.2,-0.005,0,1,-0.01245
520.399,-0.005,0,1,-0.01245
520.6,-0.005,0,1,-0.01245
520.8,-0.005,0,1,-0.01245
521,-0.005,0,1,-0.01245
521.2,-0.01,0,1,-0.01245
521.4,-0.01,0,1,-0.01245
521.601,-0.005,0,1,-0.01245
521.801,-0.005,0,1,-0.01245
522,-0.01,0,1,-0.01245
522.2,-0.005,0,1,-0.01245
522.4,-0.005,0,1,-0.01245
522.6,-0.005,0,1,-0.01245
522.801,-0.005,0,1,-0.01245
523,-0.005,0,1,-0.01245
523.201,-0.01,0,1,-0.01245
523.4,-0.005,0,1,-0.01245
523.601,-0.005,0,1,-0.01245
523.8,-0.005,0,1,-0.01245
524,-0.005,0,1,-0.01245
524.2,-0.005,0,1,-0.01245
524.401,-0.005,0,1,-0.01245
524.6,-0.005,0,1,-0.01245
524.801,-0.005,0,1,-0.01245
525,-0.01,0,1,-0.01245
525.199,-0.005,0,1,-0.01245
525.399,-0.005,0,1,-0.01245
525.6,-0.01,0,1,-0.01245
525.8,-0.01,0,1,-0.01245
526,-0.005,0,1,-0.01245
526.2,-0.005,0,1,-0.01245
526.4,-0.005,0,1,-0.01245
526.6,-0.005,0,1,-0.01245
526.8,-0.005,0,1,-0.01245
527,-0.005,0,1,-0.01245
527.2,-0.005,0,1,-0.01245
527.4,-0.005,0,1,-0.01245
527.601,-0.005,0,1,-0.01245
527.8,-0.005,0,1,-0.01245
528.001,-0.005,0,1,-0.01245
528.2,-0.005,0,1,-0.01245
528.4,-0.005,0,1,-0.01245
528.6,-0.005,0,1,-0.01245
528.8,-0.005,0,1,-0.01245
529.001,-0.005,0,1,-0.01245
529.2,-0.005,0,1,-0.01245
529.4,-0.005,0,1,-0.01245
529.6,-0.005,0,1,-0.01245
529.801,-0.005,0,1,-0.01245
530.001,-0.005,0,1,-0.01245
530.2,-0.005,0,1,-0.01245
530.4,-0.005,0,1,-0.01245
530.6,-0.005,0,1,-0.01245
530.8,-0.005,0,1,-0.01245
531,-0.005,0,1,-0.01245
531.2,-0.005,0,1,-0.01245
531.4,-0.005,0,1,-0.01245
531.6,-0.005,0,1,-0.01245
531.801,-0.005,0,1,-0.01245
532.001,-0.005,0,1,-0.01245
532.2,-0.005,0,1,-0.01245
532.4,-0.005,0,1,-0.01245
532.599,-0.005,0,1,-0.01245
532.8,-0.005,0,1,-0.01245
533,-0.005,0,1,-0.01245
533.2,-0.005,0,1,-0.01245
533.399,-0.005,0,1,-0.01245
533.6,-0.005,0,1,-0.01245
533.8,-0.005,0,1,-0.01245
534,-0.005,0,1,-0.01245
534.2,-0.005,0,1,-0.01245
534.401,-0.005,0,1,-0.01245
534.601,-0.005,0,1,-0.01245
534.8,-0.005,0,1,-0.01245
535,-0.005,0,1,-0.01245
535.199,-0.005,0,1,-0.01245
535.399,-0.005,0,1,-0.01245
535.6,-0.005,0,1,-0.01245
535.799,-0.01,0,1,-0.01245
536,-0.01,0,1,-0.01245
536.2,-0.005,0,1,-0.01245
536.4,-0.005,0,1,-0.01245
536.6,-0.005,0,1,-0.01245
536.799,-0.005,0,1,-0.01245
536.999,-0.005,0,1,-0.01245
537.2,-0.005,0,1,-0.01245
537.4,-0.005,0,1,-0.01245
537.6,-0.005,0,1,-0.01245
537.801,-0.005,0,1,-0.01245
538,-0.005,0,1,-0.01245
538.2,-0.005,0,1,-0.01245
538.4,-0.005,0,1,-0.01245
538.601,-0.01,0,1,-0.01245
538.8,-0.005,0,1,-0.01245
539,-0.005,0,1,-0.01245
539.201,-0.005,0,1,-0.01245
539.4,-0.005,0,1,-0.01245
539.6,-0.005,0,1,-0.01245
539.8,-0.01,0,1,-0.01245
540,-0.005,0,1,-0.01245
540.199,-0.005,0,1,-0.01245
540.4,-0.005,0,1,-0.01245
540.6,-0.01,0,1,-0.01245
540.799,-0.005,0,1,-0.01245
541,-0.005,0,1,-0.01245
541.2,-0.01,0,1,-0.01245
541.399,-0.005,0,1,-0.01245
541.6,-0.005,0,1,-0.01245
541.8,-0.01,0,1,-0.01245
542,-0.01,0,1,-0.01245
542.201,-0.01,0,1,-0.01245
542.4,-0.01,0,1,-0.01245
542.6,-0.01,0,1,-0.01245
542.799,-0.01,0,1,-0.01245
543,-0.01,0,1,-0.01245
543.2,-0.01,0,1,-0.01245
543.401,-0.01,0,1,-0.01245
543.599,-0.005,0,1,-0.01245
543.8,-0.01,0,1,-0.01245
544,-0.01,0,1,-0.01245
544.201,-0.01,0,1,-0.01245
544.4,-0.01,0,1,-0.01245
544.6,-0.01,0,1,-0.01245
544.8,-0.01,0,1,-0.01245
545,-0.01,0,1,-0.01245
545.2,-0.005,0,1,-0.01245
545.4,-0.01,0,1,-0.01245
545.599,-0.01,0,1,-0.01245
545.8,-0.01,0,1,-0.01245
546,-0.005,0,1,-0.01245
546.2,-0.01,0,1,-0.01245
546.4,-0.01,0,1,-0.01245
546.599,-0.01,0,1,-0.01245
546.801,-0.01,0,1,-0.01245
547,-0.01,0,1,-0.01245
547.2,-0.01,0,1,-0.01245
547.4,-0.01,0,1,-0.01245
547.599,-0.01,0,1,-0.01245
547.8,-0.01,0,1,-0.01245
548,-0.01,0,1,-0.01245
548.2,-0.01,0,1,-0.01245
548.4,-0.01,0,1,-0.01245
548.6,-0.01,0,1,-0.01245
548.8,-0.01,0,1,-0.01245
549,-0.01,0,1,-0.01245
549.2,-0.01,0,1,-0.01245
549.401,-0.01,0,1,-0.01245
549.6,-0.01,0,1,-0.01245
549.8,-0.01,0,1,-0.01245
550.001,-0.01,0,1,-0.01245
550.2,-0.01,0,1,-0.01245
550.399,-0.01,0,1,-0.01245
550.6,-0.01,0,1,-0.01245
550.799,-0.01,0,1,-0.01245
550.999,-0.01,0,1,-0.01245
551.2,-0.01,0,1,-0.01245
551.4,-0.01,0,1,-0.01245
551.6,-0.01,0,1,-0.01245
551.8,-0.01,0,1,-0.01245
552,-0.01,0,1,-0.01245
552.2,-0.01,0,1,-0.01245
552.4,-0.01,0,1,-0.01245
552.6,-0.01,0,1,-0.01245
552.8,-0.01,0,1,-0.01245
553.001,-0.01,0,1,-0.01245
553.2,-0.01,0,1,-0.01245
553.4,-0.01,0,1,-0.01245
553.6,-0.01,0,1,-0.01245
553.8,-0.01,0,1,-0.01245
554,-0.01,0,1,-0.01245
554.2,-0.01,0,1,-0.01245
554.4,-0.01,0,1,-0.01245
554.601,-0.01,0,1,-0.01245
554.801,-0.01,0,1,-0.01245
555,-0.01,0,1,-0.01245
555.2,-0.01,0,1,-0.01245
555.401,-0.01,0,1,-0.01245
555.6,-0.01,0,1,-0.01245
555.8,-0.01,0,1,-0.01245
556,-0.01,0,1,-0.01245
556.201,-0.01,0,1,-0.01245
556.402,-0.01,0,1,-0.01245
556.601,-0.01,0,1,-0.01245
556.801,-0.01,0,1,-0.01245
557,-0.01,0,1,-0.01245
557.2,-0.01,0,1,-0.01245
557.4,-0.01,0,1,-0.01245
557.601,-0.01,0,1,-0.01245
557.8,-0.01,0,1,-0.01245
558,-0.01,0,1,-0.01245
558.2,-0.01,0,1,-0.01245
558.4,-0.01,0,1,-0.01245
558.601,-0.01,0,1,-0.01245
558.799,-0.01,0,1,-0.01245
559,-0.01,0,1,-0.01245
559.2,-0.01,0,1,-0.01245
559.4,-0.01,0,1,-0.01245
559.601,-0.01,0,1,-0.01245
559.801,-0.01,0,1,-0.01245
560,-0.01,0,1,-0.01245
560.2,-0.01,0,1,-0.01245
560.401,-0.01,0,1,-0.01245
560.6,-0.01,0,1,-0.01245
560.801,-0.01,0,1,-0.01245
561,-0.01,0,1,-0.01245
561.2,-0.01,0,1,-0.01245
561.4,-0.01,0,1,-0.01245
561.599,-0.01,0,1,-0.01245
561.801,-0.01,0,1,-0.01245
562,-0.01,0,1,-0.01245
562.2,-0.01,0,1,-0.01245
562.401,-0.01,0,1,-0.01245
562.6,-0.01,0,1,-0.01245
562.8,-0.01,0,1,-0.01245
563.001,-0.01,0,1,-0.01245
563.201,-0.01,0,1,-0.01245
563.401,-0.01,0,1,-0.01245
563.601,-0.01,0,1,-0.01245
563.8,-0.01,0,1,-0.01245
564,-0.01,0,1,-0.01245
564.201,-0.01,0,1,-0.01245
564.4,-0.01,0,1,-0.01245
564.601,-0.01,0,1,-0.01245
564.801,-0.01,0,1,-0.01245
565.001,-0.01,0,1,-0.01245
565.199,-0.01,0,1,-0.01245
565.4,-0.01,0,1,-0.01245
565.6,-0.01,0,1,-0.01245
565.8,-0.01,0,1,-0.01245
566,-0.01,0,1,-0.01245
566.2,-0.01,0,1,-0.01245
566.4,-0.01,0,1,-0.01245
566.599,-0.01,0,1,-0.01245
566.8,-0.01,0,1,-0.01245
567.001,-0.01,0,1,-0.01245
567.2,-0.01,0,1,-0.01245
567.4,-0.01,0,1,-0.01245
567.6,-0.01,0,1,-0.01245
567.8,-0.01,0,1,-0.01245
568,-0.01,0,1,-0.01245
568.2,-0.01,0,1,-0.01245
568.4,-0.01,0,1,-0.01245
568.6,-0.01,0,1,-0.01245
568.8,-0.01,0,1,-0.01245
569.001,-0.01,0,1,-0.01245
569.2,-0.01,0,1,-0.01245
569.399,-0.01,0,1,-0.01245
569.601,-0.01,0,1,-0.01245
569.8,-0.01,0,1,-0.0126
570.001,-0.01,0,1,-0.01245
570.201,-0.01,0,1,-0.01245
570.4,-0.01,0,1,-0.01245
570.6,-0.01,0,1,-0.01245
570.799,-0.01,0,1,-0.0126
571.001,-0.01,0,1,-0.0126
571.2,-0.01,0,1,-0.0126
571.4,-0.01,0,1,-0.01245
571.599,-0.01,0,1,-0.01245
571.8,-0.01,0,1,-0.0126
572,-0.01,0,1,-0.01245
572.2,-0.01,0,1,-0.01245
572.401,-0.01,0,1,-0.0126
572.6,-0.01,0,1,-0.0126
572.8,-0.01,0,1,-0.0126
573,-0.01,0,1,-0.0126
573.2,-0.01,0,1,-0.0126
573.4,-0.01,0,1,-0.0126
573.6,-0.01,0,1,-0.0126
573.8,-0.01,0,1,-0.0126
573.999,-0.01,0,1,-0.0126
574.2,-0.01,0,1,-0.0126
574.401,-0.01,0,1,-0.0126
574.6,-0.01,0,1,-0.0126
574.8,-0.01,0,1,-0.0126
575,-0.01,0,1,-0.0126
575.199,-0.01,0,1,-0.0126
575.4,-0.01,0,1,-0.0126
575.601,-0.01,0,1,-0.0126
575.8,-0.01,0,1,-0.0126
576,-0.01,0,1,-0.0126
576.2,-0.01,0,1,-0.0126
576.399,-0.01,0,1,-0.0126
576.6,-0.01,0,1,-0.0126
576.8,-0.01,0,1,-0.0126
577.001,-0.01,0,1,-0.0126
577.2,-0.01,0,1,-0.0126
577.4,-0.01,0,1,-0.0126
577.6,-0.01,0,1,-0.0126
577.8,-0.01,0,1,-0.0126
578,-0.01,0,1,-0.0126
578.2,-0.01,0,1,-0.0126
578.401,-0.01,0,1,-0.0126
578.6,-0.01,0,1,-0.0126
578.8,-0.01,0,1,-0.0126
579,-0.01,0,1,-0.0126
579.201,-0.01,0,1,-0.0126
579.401,-0.01,0,1,-0.0126
579.6,-0.01,0,1,-0.0126
579.801,-0.01,0,1,-0.0126
580,-0.01,0,1,-0.0126
580.201,-0.01,0,1,-0.0126
580.401,-0.01,0,1,-0.0126
580.6,-0.01,0,1,-0.0126
580.8,-0.01,0,1,-0.0126
581,-0.01,0,1,-0.0126
581.201,-0.01,0,1,-0.0126
581.4,-0.01,0,1,-0.0126
581.6,-0.01,0,1,-0.0126
581.8,-0.01,0,1,-0.0126
582,-0.01,0,1,-0.0126
582.2,-0.01,0,1,-0.0126
582.4,-0.01,0,1,-0.0126
582.6,-0.01,0,1,-0.0126
582.8,-0.01,0,1,-0.0126
583,-0.01,0,1,-0.0126
583.2,-0.01,0,1,-0.0126
583.401,-0.01,0,1,-0.0126
583.599,-0.01,0,1,-0.0126
583.799,-0.01,0,1,-0.0126
584,-0.01,0,1,-0.0126
584.2,-0.01,0,1,-0.0126
584.4,-0.01,0,1,-0.0126
584.6,-0.01,0,1,-0.0126
584.8,-0.01,0,1,-0.0126
585,-0.01,0,1,-0.0126
585.201,-0.005,0,1,-0.0126
585.4,-0.01,0,1,-0.0126
585.599,-0.01,0,1,-0.0126
585.799,-0.01,0,1,-0.0126
586.001,-0.01,0,1,-0.0126
586.201,-0.01,0,1,-0.0126
586.4,-0.01,0,1,-0.0126
586.6,-0.005,0,1,-0.0126
586.801,-0.01,0,1,-0.0126
587,-0.01,0,1,-0.0126
587.201,-0.01,0,1,-0.0126
587.4,-0.005,0,1,-0.0126
587.601,-0.005,0,1,-0.0126
587.801,-0.01,0,1,-0.0126
588,-0.005,0,1,-0.0126
588.2,-0.01,0,1,-0.0126
588.4,-0.005,0,1,-0.0126
588.6,-0.005,0,1,-0.0126
588.801,-0.005,0,1,-0.0126
589.001,-0.01,0,1,-0.0126
589.2,-0.005,0,1,-0.0126
589.4,-0.01,0,1,-0.0126
589.6,-0.01,0,1,-0.0126
589.8,-0.005,0,1,-0.0126
589.999,-0.005,0,1,-0.0126
590.201,-0.01,0,1,-0.0126
590.4,-0.005,0,1,-0.0126
590.6,-0.005,0,1,-0.0126
590.8,-0.005,0,1,-0.0126
591,-0.01,0,1,-0.0126
591.201,-0.005,0,1,-0.0126
591.4,-0.01,0,1,-0.0126
591.6,-0.01,0,1,-0.0126
591.8,-0.01,0,1,-0.0126
592,-0.01,0,1,-0.0126
592.2,-0.005,0,1,-0.0126
592.399,-0.01,0,1,-0.0126
592.601,-0.005,0,1,-0.0126
592.801,-0.005,0,1,-0.0126
593,-0.005,0,1,-0.0126
593.2,-0.01,0,1,-0.0126
593.401,-0.005,0,1,-0.0126
593.6,-0.005,0,1,-0.0126
593.8,-0.005,0,1,-0.0126
594,-0.005,0,1,-0.0126
594.199,-0.005,0,1,-0.0126
594.4,-0.005,0,1,-0.0126
594.6,-0.005,0,1,-0.0126
594.8,-0.005,0,1,-0.0126
595,-0.005,0,1,-0.0126
595.2,-0.005,0,1,-0.0126
595.401,-0.005,0,1,-0.0126
595.6,-0.005,0,1,-0.0126
595.8,-0.005,0,1,-0.0126
596,-0.01,0,1,-0.0126
596.2,-0.005,0,1,-0.0126
596.399,-0.005,0,1,-0.0126
596.6,-0.005,0,1,-0.0126
596.8,-0.01,0,1,-0.0126
597,-0.005,0,1,-0.0126
597.2,-0.005,0,1,-0.0126
597.401,-0.005,0,1,-0.0126
597.6,-0.01,0,1,-0.0126
597.8,-0.005,0,1,-0.0126
598,-0.005,0,1,-0.0126
598.2,-0.005,0,1,-0.0126
598.4,-0.005,0,1,-0.0126
598.6,-0.005,0,1,-0.0126
598.8,-0.005,0,1,-0.0126
599,-0.005,0,1,-0.0126
599.201,-0.005,0,1,-0.0126
599.4,-0.005,0,1,-0.0126
599.599,-0.005,0,1,-0.0126
599.8,-0.005,0,1,-0.0126
600,-0.01,0,1,-0.0126
